Optical constants for amorphous carbon - ACAR sample.  Data from Zubko V. et al 1996, MNRAS, 282, 1321-1329,  Range 0.05 - 1984 mic, 1245 entries. [ZI, Aug 96

Wavelength [microns]  Re(m)       Im(m)
    0.0400800      0.90920001    0.0791800
    0.0404300      0.90259999    0.0840200
    0.0407800      0.89819998    0.0888300
    0.0411400      0.89459997    0.0935700
    0.0414900      0.89150000    0.0982400
    0.0418600      0.88880002     0.102900
    0.0422200      0.88650000     0.107400
    0.0425900      0.88429999     0.111900
    0.0429600      0.88239998     0.116400
    0.0433400      0.88069999     0.120800
    0.0437200      0.87910002     0.125200
    0.0441000      0.87760001     0.129500
    0.0444800      0.87620002     0.133800
    0.0448700      0.87489998     0.138100
    0.0452600      0.87370002     0.142400
    0.0456600      0.87260002     0.146700
    0.0460500      0.87159997     0.150900
    0.0464600      0.87059999     0.155200
    0.0468600      0.86970001     0.159400
    0.0472700      0.86879998     0.163700
    0.0476800      0.86799997     0.167900
    0.0481000      0.86720002     0.172200
    0.0485200      0.86640000     0.176500
    0.0489400      0.86570001     0.180800
    0.0493700      0.86510003     0.185100
    0.0498000      0.86440003     0.189400
    0.0502400      0.86379999     0.193800
    0.0506700      0.86320001     0.198200
    0.0511200      0.86269999     0.202700
    0.0515600      0.86220002     0.207200
    0.0520100      0.86180001     0.211700
    0.0524700      0.86129999     0.216300
    0.0529200      0.86100000     0.220900
    0.0533900      0.86059999     0.225600
    0.0538500      0.86030000     0.230300
    0.0543200      0.86009997     0.235100
    0.0548000      0.85979998     0.239900
    0.0552700      0.85970002     0.244800
    0.0557600      0.85960001     0.249800
    0.0562400      0.85949999     0.254800
    0.0567300      0.85949999     0.259800
    0.0572300      0.85949999     0.265000
    0.0577300      0.85960001     0.270200
    0.0582300      0.85970002     0.275500
    0.0587400      0.86000001     0.280800
    0.0592500      0.86019999     0.286300
    0.0597700      0.86059999     0.291800
    0.0602900      0.86110002     0.297400
    0.0608200      0.86159998     0.303100
    0.0613500      0.86229998     0.308900
    0.0618900      0.86299998     0.314700
    0.0624300      0.86390001     0.320600
    0.0629700      0.86489999     0.326600
    0.0635200      0.86600000     0.332600
    0.0640700      0.86729997     0.338600
    0.0646300      0.86860001     0.344800
    0.0652000      0.87010002     0.350900
    0.0657700      0.87180001     0.357100
    0.0663400      0.87360001     0.363300
    0.0669200      0.87550002     0.369500
    0.0675000      0.87750000     0.375800
    0.0680900      0.87970001     0.382100
    0.0686900      0.88200003     0.388400
    0.0692900      0.88440001     0.394700
    0.0698900      0.88700002     0.401000
    0.0705000      0.88970000     0.407300
    0.0711200      0.89249998     0.413500
    0.0717400      0.89550000     0.419800
    0.0723600      0.89850003     0.426100
    0.0729900      0.90170002     0.432400
    0.0736300      0.90499997     0.438700
    0.0742700      0.90850002     0.445000
    0.0749200      0.91200000     0.451300
    0.0755800      0.91570002     0.457600
    0.0762400      0.91949999     0.463900
    0.0769000      0.92339998     0.470200
    0.0775700      0.92750001     0.476500
    0.0782500      0.93169999     0.482800
    0.0789300      0.93610001     0.489200
    0.0796200      0.94069999     0.495600
    0.0803200      0.94540000     0.502000
    0.0810200      0.95029998     0.508400
    0.0817200      0.95550001     0.514900
    0.0824400      0.96090001     0.521300
    0.0831600      0.96649998     0.527700
    0.0838800      0.97240001     0.534000
    0.0846200      0.97860003     0.540200
    0.0853500      0.98500001     0.546300
    0.0861000      0.99169999     0.552300
    0.0868500      0.99860001     0.558200
    0.0876100       1.0060000     0.563900
    0.0883700       1.0130000     0.569300
    0.0891400       1.0210000     0.574600
    0.0899200       1.0290000     0.579600
    0.0907100       1.0369999     0.584300
    0.0915000       1.0450000     0.588800
    0.0923000       1.0540000     0.592900
    0.0931000       1.0620000     0.596800
    0.0939200       1.0710000     0.600500
    0.0947300       1.0790000     0.603800
    0.0955600       1.0880001     0.606900
    0.0964000       1.0970000     0.609600
    0.0972400       1.1059999     0.612200
    0.0980900       1.1140000     0.614400
    0.0989400       1.1230000     0.616400
    0.0998100       1.1320000     0.618100
     0.100700       1.1410000     0.619600
     0.101600       1.1500000     0.620800
     0.102400       1.1590000     0.621800
     0.103300       1.1670001     0.622500
     0.104200       1.1760000     0.622900
     0.105100       1.1849999     0.623100
     0.106100       1.1940000     0.623000
     0.107000       1.2020000     0.622700
     0.107900       1.2110000     0.622100
     0.108900       1.2190000     0.621200
     0.109800       1.2280000     0.620100
     0.110800       1.2359999     0.618800
     0.111700       1.2440000     0.617200
     0.112700       1.2520000     0.615300
     0.113700       1.2600000     0.613200
     0.114700       1.2680000     0.610800
     0.115700       1.2750000     0.608200
     0.116700       1.2830000     0.605400
     0.117700       1.2900000     0.602300
     0.118700       1.2970001     0.599000
     0.119800       1.3040000     0.595500
     0.120800       1.3099999     0.591800
     0.121900       1.3170000     0.587900
     0.122900       1.3230000     0.583800
     0.124000       1.3290000     0.579500
     0.125100       1.3340000     0.575100
     0.126200       1.3390000     0.570700
     0.127300       1.3440000     0.566100
     0.128400       1.3490000     0.561500
     0.129500       1.3530000     0.556900
     0.130700       1.3570000     0.552300
     0.131800       1.3609999     0.547700
     0.133000       1.3650000     0.543100
     0.134100       1.3680000     0.538400
     0.135300       1.3720000     0.533500
     0.136500       1.3750000     0.528400
     0.137700       1.3789999     0.523100
     0.138900       1.3820000     0.517400
     0.140100       1.3839999     0.511300
     0.141300       1.3870000     0.504800
     0.142500       1.3880000     0.498000
     0.143800       1.3890001     0.491000
     0.145000       1.3880000     0.484000
     0.146300       1.3870000     0.477200
     0.147600       1.3860000     0.470700
     0.148900       1.3830000     0.464700
     0.150200       1.3800000     0.459400
     0.151500       1.3760000     0.454800
     0.152800       1.3720000     0.450900
     0.154100       1.3680000     0.447700
     0.155500       1.3640000     0.444900
     0.156800       1.3600000     0.442400
     0.158200       1.3559999     0.440200
     0.159600       1.3520000     0.438100
     0.161000       1.3480000     0.435900
     0.162400       1.3440000     0.433700
     0.163800       1.3390000     0.431600
     0.165200       1.3340000     0.429900
     0.166700       1.3270000     0.428600
     0.168100       1.3210000     0.427900
     0.169600       1.3140000     0.428100
     0.171100       1.3060000     0.429100
     0.172500       1.2990000     0.431200
     0.174100       1.2910000     0.434100
     0.175600       1.2840000     0.437900
     0.177100       1.2770000     0.442500
     0.178700       1.2700000     0.447800
     0.180200       1.2640001     0.453700
     0.181800       1.2580000     0.460200
     0.183400       1.2520000     0.467200
     0.185000       1.2470000     0.474800
     0.186600       1.2420000     0.482800
     0.188200       1.2380000     0.491400
     0.189900       1.2340000     0.500300
     0.191500       1.2309999     0.509700
     0.193200       1.2280000     0.519400
     0.194900       1.2260000     0.529300
     0.196600       1.2250000     0.539400
     0.198300       1.2240000     0.549400
     0.200000       1.2240000     0.559400
     0.201800       1.2240000     0.569200
     0.203500       1.2250000     0.578800
     0.205300       1.2250000     0.588400
     0.207100       1.2260000     0.598100
     0.208900       1.2270000     0.607800
     0.210700       1.2280000     0.617800
     0.212600       1.2300000     0.628200
     0.214400       1.2309999     0.638800
     0.216300       1.2330000     0.649600
     0.218200       1.2359999     0.660700
     0.220100       1.2390000     0.672000
     0.222000       1.2430000     0.683400
     0.223900       1.2470000     0.695000
     0.225900       1.2520000     0.706400
     0.227900       1.2580000     0.717800
     0.229900       1.2640001     0.728900
     0.231900       1.2710000     0.739700
     0.233900       1.2780000     0.750100
     0.235900       1.2850000     0.760400
     0.238000       1.2930000     0.770500
     0.240100       1.3010000     0.780700
     0.242200       1.3090000     0.791000
     0.244300       1.3180000     0.801300
     0.246400       1.3279999     0.811400
     0.248600       1.3390000     0.821000
     0.250700       1.3500000     0.829800
     0.252900       1.3620000     0.837800
     0.255100       1.3740000     0.845000
     0.257300       1.3870000     0.851400
     0.259600       1.3990000     0.857200
     0.261900       1.4110000     0.862500
     0.264100       1.4230000     0.867400
     0.266400       1.4349999     0.871900
     0.268800       1.4470000     0.875900
     0.271100       1.4590000     0.879500
     0.273500       1.4710000     0.882700
     0.275900       1.4830000     0.885300
     0.278300       1.4950000     0.887400
     0.280700       1.5070000     0.888800
     0.283200       1.5190001     0.889400
     0.285600       1.5290000     0.889600
     0.288100       1.5390000     0.889600
     0.290600       1.5490000     0.889600
     0.293200       1.5580000     0.890000
     0.295700       1.5670000     0.890700
     0.298300       1.5760000     0.891600
     0.300900       1.5850000     0.892500
     0.303500       1.5940000     0.893300
     0.306200       1.6030000     0.894000
     0.308900       1.6120000     0.894700
     0.311600       1.6200000     0.895200
     0.314300       1.6289999     0.895700
     0.317000       1.6380000     0.896100
     0.319800       1.6470000     0.896400
     0.322600       1.6560000     0.896600
     0.325400       1.6640000     0.896700
     0.328200       1.6730000     0.896700
     0.331100       1.6810000     0.896700
     0.334000       1.6900001     0.896500
     0.336900       1.6980000     0.896300
     0.339800       1.7070000     0.896000
     0.342800       1.7150000     0.895600
     0.345800       1.7230000     0.895200
     0.348800       1.7320000     0.894600
     0.351900       1.7400000     0.894000
     0.354900       1.7480000     0.893400
     0.358000       1.7560000     0.892600
     0.361200       1.7640001     0.891800
     0.364300       1.7720000     0.890900
     0.367500       1.7800000     0.890000
     0.370700       1.7869999     0.889000
     0.373900       1.7950000     0.887900
     0.377200       1.8030000     0.886700
     0.380500       1.8099999     0.885500
     0.383800       1.8180000     0.884200
     0.387200       1.8250000     0.882900
     0.390500       1.8329999     0.881500
     0.393900       1.8400000     0.880100
     0.397400       1.8470000     0.878500
     0.400800       1.8550000     0.877000
     0.404300       1.8620000     0.875300
     0.407900       1.8690000     0.873700
     0.411400       1.8760000     0.871900
     0.415000       1.8830000     0.870200
     0.418600       1.8890001     0.868300
     0.422300       1.8960000     0.866500
     0.426000       1.9030000     0.864600
     0.429700       1.9090000     0.862700
     0.433500       1.9160000     0.860700
     0.437200       1.9220001     0.858700
     0.441100       1.9290000     0.856700
     0.444900       1.9349999     0.854600
     0.448800       1.9410000     0.852500
     0.452700       1.9470000     0.850400
     0.456700       1.9529999     0.848300
     0.460600       1.9590000     0.846200
     0.464700       1.9650000     0.844100
     0.468700       1.9710000     0.841900
     0.472800       1.9770000     0.839800
     0.476900       1.9820000     0.837700
     0.481100       1.9880000     0.835500
     0.485300       1.9930000     0.833400
     0.489500       1.9990000     0.831200
     0.493800       2.0039999     0.829100
     0.498100       2.0090001     0.827000
     0.502500       2.0139999     0.824900
     0.506800       2.0200000     0.822800
     0.511300       2.0250001     0.820800
     0.515700       2.0300000     0.818700
     0.520200       2.0350001     0.816700
     0.524800       2.0400000     0.814700
     0.529400       2.0439999     0.812700
     0.534000       2.0490000     0.810700
     0.538600       2.0539999     0.808800
     0.543300       2.0590000     0.806800
     0.548100       2.0630000     0.804900
     0.552900       2.0680001     0.803000
     0.557700       2.0730000     0.801200
     0.562600       2.0769999     0.799300
     0.567500       2.0820000     0.797500
     0.572400       2.0860000     0.795700
     0.577400       2.0910001     0.793900
     0.582500       2.0950000     0.792200
     0.587500       2.0990000     0.790400
     0.592700       2.1040001     0.788700
     0.597800       2.1080000     0.787100
     0.603100       2.1120000     0.785400
     0.608300       2.1170001     0.783800
     0.613600       2.1210001     0.782200
     0.619000       2.1250000     0.780600
     0.624400       2.1289999     0.779000
     0.629800       2.1329999     0.777500
     0.635300       2.1380000     0.775900
     0.640900       2.1420000     0.774400
     0.646500       2.1459999     0.772900
     0.652100       2.1500001     0.771300
     0.657800       2.1540000     0.769800
     0.663500       2.1580000     0.768300
     0.669300       2.1619999     0.766800
     0.675200       2.1659999     0.765300
     0.681100       2.1700001     0.763700
     0.687000       2.1740000     0.762200
     0.693000       2.1780000     0.760700
     0.699100       2.1819999     0.759100
     0.705200       2.1860001     0.757500
     0.711300       2.1900001     0.755900
     0.717500       2.1940000     0.754300
     0.723800       2.1970000     0.752700
     0.730100       2.2010000     0.751200
     0.736500       2.2049999     0.749600
     0.742900       2.2079999     0.748100
     0.749400       2.2110000     0.746700
     0.755900       2.2149999     0.745300
     0.762500       2.2179999     0.744000
     0.769200       2.2210000     0.742800
     0.775900       2.2240000     0.741700
     0.782700       2.2270000     0.740700
     0.789500       2.2300000     0.739800
     0.796400       2.2330000     0.739100
     0.803300       2.2360001     0.738500
     0.810300       2.2390001     0.738100
     0.817400       2.2420001     0.737700
     0.824500       2.2460001     0.737500
     0.831700       2.2490001     0.737400
     0.839000       2.2520001     0.737400
     0.846300       2.2560000     0.737300
     0.853700       2.2600000     0.737300
     0.861200       2.2639999     0.737300
     0.868700       2.2679999     0.737200
     0.876300       2.2720001     0.737100
     0.883900       2.2760000     0.736900
     0.891600       2.2809999     0.736500
     0.899400       2.2850001     0.736000
     0.907300       2.2900000     0.735400
     0.915200       2.2939999     0.734600
     0.923200       2.2990000     0.733600
     0.931200       2.3030000     0.732500
     0.939300       2.3069999     0.731300
     0.947500       2.3110001     0.730000
     0.955800       2.3160000     0.728600
     0.964200       2.3190000     0.727200
     0.972600       2.3230000     0.725800
     0.981100       2.3269999     0.724300
     0.989600       2.3310001     0.722900
     0.998300       2.3340001     0.721500
      1.00700       2.3369999     0.720100
      1.01600       2.3410001     0.718800
      1.02500       2.3440001     0.717600
      1.03400       2.3469999     0.716500
      1.04300       2.3499999     0.715400
      1.05200       2.3529999     0.714400
      1.06100       2.3559999     0.713500
      1.07000       2.3580000     0.712700
      1.07900       2.3610001     0.712000
      1.08900       2.3640001     0.711400
      1.09800       2.3670001     0.710900
      1.10800       2.3699999     0.710500
      1.11800       2.3729999     0.710200
      1.12700       2.3759999     0.710000
      1.13700       2.3789999     0.709900
      1.14700       2.3820000     0.709800
      1.15700       2.3850000     0.709700
      1.16700       2.3889999     0.709600
      1.17700       2.3920000     0.709400
      1.18800       2.3950000     0.709200
      1.19800       2.3989999     0.708900
      1.20900       2.4020000     0.708500
      1.21900       2.4059999     0.707900
      1.23000       2.4089999     0.707300
      1.24000       2.4130001     0.706700
      1.25100       2.4159999     0.706100
      1.26200       2.4189999     0.705500
      1.27300       2.4219999     0.705100
      1.28400       2.4240000     0.704700
      1.29600       2.4270000     0.704600
      1.30700       2.4300001     0.704600
      1.31800       2.4319999     0.704900
      1.33000       2.4349999     0.705300
      1.34100       2.4389999     0.705900
      1.35300       2.4419999     0.706400
      1.36500       2.4449999     0.706900
      1.37700       2.4489999     0.707400
      1.38900       2.4530001     0.707600
      1.40100       2.4570000     0.707700
      1.41300       2.4610000     0.707400
      1.42600       2.4649999     0.706900
      1.43800       2.4690001     0.706300
      1.45100       2.4719999     0.705600
      1.46300       2.4749999     0.704900
      1.47600       2.4779999     0.704300
      1.48900       2.4809999     0.703800
      1.50200       2.4840000     0.703600
      1.51500       2.4860001     0.703700
      1.52800       2.4890001     0.704000
      1.54100       2.4920001     0.704500
      1.55500       2.4949999     0.705200
      1.56900       2.4979999     0.705800
      1.58200       2.5009999     0.706500
      1.59600       2.5050001     0.707100
      1.61000       2.5079999     0.707500
      1.62400       2.5120001     0.707800
      1.63800       2.5160000     0.707900
      1.65200       2.5190001     0.707900
      1.66700       2.5220001     0.708000
      1.68100       2.5260000     0.708000
      1.69600       2.5290000     0.708200
      1.71100       2.5320001     0.708500
      1.72600       2.5350001     0.709000
      1.74100       2.5380001     0.709600
      1.75600       2.5420001     0.710200
      1.77100       2.5450001     0.710900
      1.78700       2.5490000     0.711500
      1.80200       2.5530000     0.712000
      1.81800       2.5560000     0.712300
      1.83400       2.5599999     0.712600
      1.85000       2.5639999     0.712900
      1.86600       2.5669999     0.713200
      1.88300       2.5699999     0.713600
      1.89900       2.5739999     0.714200
      1.91600       2.5769999     0.715100
      1.93200       2.5810001     0.716100
      1.94900       2.5850000     0.717100
      1.96600       2.5899999     0.717900
      1.98300       2.5940001     0.718400
      2.00100       2.5990000     0.718400
      2.01800       2.6040001     0.717700
      2.03600       2.6080000     0.716600
      2.05300       2.6120000     0.715400
      2.07100       2.6140001     0.714300
      2.08900       2.6170001     0.713800
      2.10800       2.6190000     0.714100
      2.12600       2.6210001     0.715300
      2.14500       2.6250000     0.717000
      2.16300       2.6289999     0.718600
      2.18200       2.6340001     0.719800
      2.20100       2.6389999     0.720000
      2.22000       2.6450000     0.718800
      2.24000       2.6489999     0.716700
      2.25900       2.6520000     0.714300
      2.27900       2.6540000     0.712400
      2.29900       2.6550000     0.711500
      2.31900       2.6550000     0.712400
      2.33900       2.6570001     0.714600
      2.36000       2.6589999     0.717500
      2.38000       2.6630001     0.720200
      2.40100       2.6680000     0.722000
      2.42200       2.6740000     0.722400
      2.44300       2.6789999     0.721700
      2.46500       2.6830001     0.720500
      2.48600       2.6849999     0.719400
      2.50800       2.6870000     0.719200
      2.53000       2.6900001     0.720100
      2.55200       2.6919999     0.721700
      2.57400       2.6960001     0.723500
      2.59600       2.7000000     0.725100
      2.61900       2.7040000     0.725900
      2.64200       2.7090001     0.725900
      2.66500       2.7130001     0.725600
      2.68800       2.7170000     0.725000
      2.71200       2.7200000     0.724600
      2.73500       2.7219999     0.724600
      2.75900       2.7249999     0.724900
      2.78300       2.7270000     0.725700
      2.80800       2.7300000     0.726900
      2.83200       2.7330000     0.728600
      2.85700       2.7370000     0.730300
      2.88200       2.7409999     0.731800
      2.90700       2.7460001     0.732600
      2.93200       2.7509999     0.732600
      2.95800       2.7550001     0.732000
      2.98400       2.7579999     0.731300
      3.01000       2.7609999     0.730900
      3.03600       2.7639999     0.731000
      3.06300       2.7660000     0.731600
      3.08900       2.7690001     0.732500
      3.11600       2.7720001     0.733700
      3.14300       2.7750001     0.735000
      3.17100       2.7780001     0.736100
      3.19900       2.7820001     0.736700
      3.22600       2.7850001     0.736700
      3.25500       2.7880001     0.736600
      3.28300       2.7890000     0.737300
      3.31200       2.7900000     0.739800
      3.34100       2.7920001     0.744000
      3.37000       2.7960000     0.748800
      3.39900       2.8020000     0.753000
      3.42900       2.8099999     0.755300
      3.45900       2.8169999     0.755800
      3.48900       2.8230000     0.755100
      3.51900       2.8290000     0.753700
      3.55000       2.8329999     0.752000
      3.58100       2.8369999     0.750500
      3.61200       2.8399999     0.749500
      3.64400       2.8420000     0.749200
      3.67600       2.8450000     0.749600
      3.70800       2.8469999     0.750300
      3.74000       2.8499999     0.751400
      3.77300       2.8540001     0.752500
      3.80600       2.8570001     0.753300
      3.83900       2.8610001     0.753900
      3.87200       2.8640001     0.754500
      3.90600       2.8659999     0.755500
      3.94000       2.8699999     0.757300
      3.97500       2.8729999     0.759300
      4.00900       2.8780000     0.760900
      4.04400       2.8829999     0.761600
      4.08000       2.8880000     0.761500
      4.11500       2.8920000     0.760800
      4.15100       2.8950000     0.759900
      4.18700       2.8970001     0.759700
      4.22400       2.8980000     0.761100
      4.26100       2.9010000     0.763800
      4.29800       2.9050000     0.766500
      4.33500       2.9100001     0.768000
      4.37300       2.9150000     0.768500
      4.41100       2.9189999     0.768900
      4.45000       2.9230001     0.769300
      4.48900       2.9270000     0.769700
      4.52800       2.9310000     0.769700
      4.56800       2.9340000     0.769600
      4.60700       2.9370000     0.769900
      4.64800       2.9389999     0.771100
      4.68800       2.9419999     0.772900
      4.72900       2.9460001     0.775000
      4.77000       2.9510000     0.776700
      4.81200       2.9570000     0.777400
      4.85400       2.9619999     0.776800
      4.89600       2.9660001     0.775600
      4.93900       2.9700000     0.774400
      4.98200       2.9740000     0.773100
      5.02600       2.9770000     0.771300
      5.07000       2.9790001     0.769300
      5.11400       2.9800000     0.767600
      5.15800       2.9800000     0.766900
      5.20300       2.9800000     0.767700
      5.24900       2.9809999     0.769900
      5.29500       2.9830000     0.772100
      5.34100       2.9870000     0.772800
      5.38700       2.9890001     0.771900
      5.43400       2.9900000     0.769900
      5.48200       2.9879999     0.768600
      5.53000       2.9860001     0.770500
      5.57800       2.9840000     0.775000
      5.62700       2.9840000     0.779100
      5.67600       2.9840000     0.782800
      5.72500       2.9840000     0.788900
      5.77500       2.9860001     0.797000
      5.82600       2.9920001     0.802200
      5.87700       2.9979999     0.803500
      5.92800       3.0009999     0.803700
      5.98000       3.0020001     0.804700
      6.03200       3.0009999     0.807100
      6.08400       3.0009999     0.811200
      6.13800       3.0000000     0.817300
      6.19100       3.0009999     0.825200
      6.24500       3.0039999     0.833700
      6.30000       3.0100000     0.841300
      6.35500       3.0160000     0.846600
      6.41000       3.0220001     0.850800
      6.46600       3.0270000     0.855400
      6.52200       3.0320001     0.859900
      6.57900       3.0369999     0.864400
      6.63700       3.0430000     0.869600
      6.69500       3.0500000     0.874100
      6.75300       3.0580001     0.875700
      6.81200       3.0639999     0.875200
      6.87200       3.0669999     0.874700
      6.93100       3.0680001     0.875600
      6.99200       3.0669999     0.879700
      7.05300       3.0690000     0.888000
      7.11500       3.0739999     0.895500
      7.17700       3.0790000     0.898900
      7.23900       3.0820000     0.905800
      7.30200       3.0880001     0.915000
      7.36600       3.0969999     0.920000
      7.43100       3.1040001     0.923500
      7.49500       3.1110001     0.927800
      7.56100       3.1170001     0.932200
      7.62700       3.1229999     0.935400
      7.69300       3.1280000     0.939200
      7.76000       3.1329999     0.948100
      7.82800       3.1429999     0.957200
      7.89700       3.1559999     0.960900
      7.96500       3.1659999     0.959000
      8.03500       3.1719999     0.959100
      8.10500       3.1770000     0.963400
      8.17600       3.1849999     0.967000
      8.24700       3.1919999     0.970400
      8.31900       3.2000000     0.973900
      8.39200       3.2070000     0.977300
      8.46500       3.2160001     0.980600
      8.53900       3.2240000     0.983900
      8.61300       3.2330000     0.987000
      8.68900       3.2420001     0.990100
      8.76400       3.2530000     0.994700
      8.84100       3.2650001     0.993300
      8.91800       3.2730000     0.989400
      8.99600       3.2780001     0.992200
      9.07400       3.2869999     0.994500
      9.15400       3.2969999     0.998200
      9.23300       3.3099999     0.997200
      9.31400       3.3190000     0.991100
      9.39500       3.3250000     0.990500
      9.47700       3.3329999     0.990700
      9.56000       3.3410001     0.988300
      9.64400       3.3480000     0.985600
      9.72800       3.3540001     0.984200
      9.81300       3.3610001     0.983200
      9.89800       3.3690000     0.981900
      9.98500       3.3759999     0.977500
      10.0700       3.3810000     0.974600
      10.1600       3.3850000     0.968900
      10.2500       3.3859999     0.967200
      10.3400       3.3900001     0.969500
      10.4300       3.3959999     0.966700
      10.5200       3.3970001     0.962800
      10.6100       3.3980000     0.965000
      10.7000       3.4030001     0.968600
      10.8000       3.4080000     0.966900
      10.8900       3.4119999     0.967100
      10.9900       3.4150000     0.964500
      11.0800       3.4159999     0.966600
      11.1800       3.4189999     0.970200
      11.2800       3.4250000     0.971800
      11.3700       3.4289999     0.970900
      11.4700       3.4319999     0.973200
      11.5700       3.4360001     0.974100
      11.6800       3.4389999     0.975900
      11.7800       3.4440000     0.979200
      11.8800       3.4500000     0.978600
      11.9800       3.4519999     0.977500
      12.0900       3.4540000     0.979400
      12.1900       3.4540000     0.980800
      12.3000       3.4570000     0.989800
      12.4100       3.4640000     0.992200
      12.5200       3.4690001     0.994200
      12.6200       3.4719999     0.996700
      12.7400       3.4779999      1.00400
      12.8500       3.4860001      1.00600
      12.9600       3.4909999      1.00500
      13.0700       3.4940000      1.00900
      13.1900       3.5000000      1.01500
      13.3000       3.5079999      1.01800
      13.4200       3.5139999      1.01900
      13.5300       3.5200000      1.02300
      13.6500       3.5270000      1.02600
      13.7700       3.5350001      1.03000
      13.8900       3.5439999      1.03100
      14.0100       3.5510001      1.03200
      14.1300       3.5599999      1.03300
      14.2600       3.5680001      1.03000
      14.3800       3.5720000      1.02700
      14.5100       3.5780001      1.03200
      14.6300       3.5840001      1.02600
      14.7600       3.5860000      1.02900
      14.8900       3.5910001      1.03000
      15.0200       3.5969999      1.03300
      15.1500       3.6040001      1.03100
      15.2800       3.6070001      1.02900
      15.4200       3.6110001      1.03400
      15.5500       3.6180000      1.03500
      15.6900       3.6229999      1.03200
      15.8300       3.6270001      1.03600
      15.9600       3.6320000      1.03300
      16.1000       3.6329999      1.03400
      16.2400       3.6380000      1.03800
      16.3800       3.6420000      1.03600
      16.5300       3.6440001      1.03900
      16.6700       3.6480000      1.04200
      16.8200       3.6510000      1.04400
      16.9600       3.6550000      1.04900
      17.1100       3.6589999      1.05100
      17.2600       3.6659999      1.05800
      17.4100       3.6750000      1.05700
      17.5600       3.6789999      1.05600
      17.7200       3.6810000      1.05700
      17.8700       3.6849999      1.06200
      18.0300       3.6919999      1.06700
      18.1900       3.6980000      1.06300
      18.3400       3.7000000      1.06500
      18.5000       3.7019999      1.06700
      18.6700       3.7049999      1.07300
      18.8300       3.7100000      1.07400
      18.9900       3.7140000      1.08000
      19.1600       3.7179999      1.08100
      19.3300       3.7219999      1.08700
      19.5000       3.7260001      1.08900
      19.6700       3.7300000      1.09500
      19.8400       3.7309999      1.09500
      20.0100       3.7309999      1.10800
      20.1800       3.7390001      1.12300
      20.3600       3.7539999      1.13200
      20.5400       3.7690001      1.13500
      20.7200       3.7809999      1.13400
      20.9000       3.7900000      1.13200
      21.0800       3.7960000      1.13100
      21.2600       3.8010001      1.13200
      21.4500       3.8060000      1.13400
      21.6400       3.8120000      1.13800
      21.8300       3.8199999      1.14200
      22.0200       3.8280001      1.14500
      22.2100       3.8360000      1.14700
      22.4000       3.8440001      1.14800
      22.6000       3.8520000      1.14900
      22.8000       3.8590000      1.14900
      22.9900       3.8650000      1.15000
      23.2000       3.8710001      1.15000
      23.4000       3.8770001      1.15100
      23.6000       3.8820000      1.15300
      23.8100       3.8870001      1.15500
      24.0200       3.8920000      1.15700
      24.2300       3.8970001      1.16000
      24.4400       3.9020000      1.16300
      24.6500       3.9070001      1.16600
      24.8700       3.9130001      1.16900
      25.0800       3.9189999      1.17300
      25.3000       3.9260001      1.17700
      25.5200       3.9330001      1.18000
      25.7400       3.9400001      1.18400
      25.9700       3.9470000      1.18700
      26.2000       3.9549999      1.18900
      26.4200       3.9619999      1.19100
      26.6600       3.9679999      1.19300
      26.8900       3.9740000      1.19500
      27.1200       3.9800000      1.19800
      27.3600       3.9849999      1.20100
      27.6000       3.9909999      1.20500
      27.8400       3.9979999      1.20900
      28.0800       4.0050001      1.21300
      28.3300       4.0120001      1.21800
      28.5700       4.0190001      1.22200
      28.8200       4.0260000      1.22600
      29.0800       4.0339999      1.23100
      29.3300       4.0419998      1.23600
      29.5900       4.0510001      1.24100
      29.8400       4.0609999      1.24600
      30.1000       4.0720000      1.25000
      30.3700       4.0819998      1.25300
      30.6300       4.0929999      1.25600
      30.9000       4.1030002      1.25800
      31.1700       4.1129999      1.26200
      31.4400       4.1250000      1.26500
      31.7100       4.1380000      1.26800
      31.9900       4.1520000      1.26900
      32.2700       4.1650000      1.26600
      32.5500       4.1780000      1.26200
      32.8400       4.1869998      1.25700
      33.1200       4.1950002      1.25300
      33.4100       4.2010002      1.25000
      33.7000       4.2069998      1.24800
      34.0000       4.2129998      1.24700
      34.2900       4.2189999      1.24600
      34.5900       4.2259998      1.24600
      34.9000       4.2319999      1.24500
      35.2000       4.2389998      1.24400
      35.5100       4.2449999      1.24200
      35.8200       4.2500000      1.24000
      36.1300       4.2550001      1.23900
      36.4500       4.2589998      1.24000
      36.7600       4.2639999      1.24000
      37.0800       4.2690001      1.24100
      37.4100       4.2729998      1.24100
      37.7300       4.2770000      1.24200
      38.0600       4.2800002      1.24500
      38.4000       4.2849998      1.24900
      38.7300       4.2919998      1.25400
      39.0700       4.3010001      1.25700
      39.4100       4.3099999      1.25600
      39.7500       4.3160000      1.25400
      40.1000       4.3200002      1.25200
      40.4500       4.3210001      1.25300
      40.8000       4.3220000      1.25700
      41.1600       4.3249998      1.26400
      41.5200       4.3299999      1.27300
      41.8800       4.3390002      1.28200
      42.2500       4.3509998      1.28700
      42.6200       4.3620000      1.29000
      42.9900       4.3720002      1.29200
      43.3600       4.3820000      1.29500
      43.7400       4.3930001      1.29800
      44.1200       4.4050002      1.29900
      44.5100       4.4159999      1.29700
      44.9000       4.4250002      1.29400
      45.2900       4.4330001      1.29300
      45.6800       4.4400001      1.29200
      46.0800       4.4480000      1.29100
      46.4900       4.4540000      1.28800
      46.8900       4.4590001      1.28700
      47.3000       4.4619999      1.28800
      47.7100       4.4679999      1.29100
      48.1300       4.4759998      1.29300
      48.5500       4.4829998      1.29200
      48.9700       4.4889998      1.29200
      49.4000       4.4940000      1.29300
      49.8300       4.4990001      1.29400
      50.2700       4.5050001      1.29600
      50.7100       4.5110002      1.29600
      51.1500       4.5149999      1.29900
      51.5900       4.5209999      1.30300
      52.0400       4.5289998      1.30600
      52.5000       4.5370002      1.30700
      52.9600       4.5440001      1.30700
      53.4200       4.5489998      1.30900
      53.8900       4.5539999      1.31300
      54.3600       4.5619998      1.31700
      54.8300       4.5710001      1.31900
      55.3100       4.5799999      1.32000
      55.7900       4.5879998      1.31800
      56.2800       4.5929999      1.31900
      56.7700       4.5980000      1.32100
      57.2700       4.6050000      1.32300
      57.7600       4.6120000      1.32500
      58.2700       4.6190000      1.32600
      58.7800       4.6240001      1.32700
      59.2900       4.6290002      1.33000
      59.8100       4.6360002      1.33600
      60.3300       4.6459999      1.33900
      60.8600       4.6550002      1.33900
      61.3900       4.6630001      1.33900
      61.9200       4.6700001      1.34000
      62.4600       4.6770000      1.33900
      63.0100       4.6810002      1.33900
      63.5600       4.6859999      1.34200
      64.1100       4.6919999      1.34700
      64.6700       4.7010002      1.35100
      65.2400       4.7110000      1.35200
      65.8100       4.7179999      1.35000
      66.3800       4.7230000      1.35200
      66.9600       4.7309999      1.35600
      67.5500       4.7399998      1.35400
      68.1300       4.7449999      1.35200
      68.7300       4.7480001      1.35400
      69.3300       4.7540002      1.35700
      69.9300       4.7600002      1.35900
      70.5400       4.7659998      1.36000
      71.1600       4.7719998      1.36200
      71.7800       4.7779999      1.36400
      72.4100       4.7830000      1.36400
      73.0400       4.7849998      1.36600
      73.6800       4.7900000      1.37300
      74.3200       4.7979999      1.37700
      74.9700       4.8030000      1.37700
      75.6200       4.8080001      1.38400
      76.2800       4.8169999      1.38800
      76.9500       4.8230000      1.38700
      77.6200       4.8280001      1.39400
      78.3000       4.8360000      1.39700
      78.9800       4.8410001      1.39600
      79.6700       4.8439999      1.40100
      80.3700       4.8490000      1.40800
      81.0700       4.8550000      1.41400
      81.7700       4.8620000      1.42000
      82.4900       4.8699999      1.42600
      83.2100       4.8769999      1.43100
      83.9300       4.8860002      1.43700
      84.6700       4.8940001      1.44300
      85.4100       4.9029999      1.44800
      86.1500       4.9130001      1.45500
      86.9000       4.9260001      1.46100
      87.6600       4.9340000      1.45700
      88.4300       4.9359999      1.46200
      89.2000       4.9460001      1.47700
      89.9800       4.9600000      1.48100
      90.7600       4.9710002      1.48600
      91.5500       4.9850001      1.49300
      92.3500       5.0009999      1.49300
      93.1600       5.0110002      1.48800
      93.9700       5.0180001      1.49300
      94.7900       5.0310001      1.49900
      95.6200       5.0440001      1.49500
      96.4600       5.0479999      1.49100
      97.3000       5.0500002      1.50000
      98.1500       5.0630002      1.51400
      99.0000       5.0799999      1.51700
      99.8700       5.0980000      1.52200
      100.700       5.1139998      1.51400
      101.600       5.1250000      1.51500
      102.500       5.1380000      1.51100
      103.400       5.1450000      1.50400
      104.300       5.1529999      1.50900
      105.200       5.1669998      1.50800
      106.100       5.1750002      1.49700
      107.100       5.1780000      1.49900
      108.000       5.1849999      1.50000
      108.900       5.1929998      1.50000
      109.900       5.1999998      1.50100
      110.800       5.2080002      1.50100
      111.800       5.2160001      1.50100
      112.800       5.2240000      1.50100
      113.800       5.2319999      1.50000
      114.800       5.2379999      1.49900
      115.800       5.2449999      1.49900
      116.800       5.2459998      1.49500
      117.800       5.2490001      1.50800
      118.800       5.2589998      1.50800
      119.900       5.2670002      1.51300
      120.900       5.2770000      1.51500
      122.000       5.2870002      1.51700
      123.000       5.2950001      1.51400
      124.100       5.2989998      1.51500
      125.200       5.3039999      1.52000
      126.300       5.3119998      1.52500
      127.400       5.3230000      1.52900
      128.500       5.3350000      1.53100
      129.600       5.3449998      1.52900
      130.700       5.3509998      1.52600
      131.900       5.3550000      1.52900
      133.000       5.3620000      1.53300
      134.200       5.3709998      1.53700
      135.400       5.3800001      1.53800
      136.500       5.3880000      1.53900
      137.700       5.3959999      1.54000
      138.900       5.4029999      1.54000
      140.200       5.4089999      1.54300
      141.400       5.4169998      1.54600
      142.600       5.4250002      1.54700
      143.900       5.4330001      1.54800
      145.100       5.4400001      1.54800
      146.400       5.4460001      1.54800
      147.700       5.4499998      1.54900
      148.900       5.4540000      1.55100
      150.200       5.4569998      1.55500
      151.600       5.4610000      1.56200
      152.900       5.4660001      1.56900
      154.200       5.4730000      1.57800
      155.600       5.4819999      1.58700
      156.900       5.4930000      1.59500
      158.300       5.5060000      1.60300
      159.700       5.5209999      1.60800
      161.100       5.5359998      1.61000
      162.500       5.5500002      1.61000
      163.900       5.5619998      1.60900
      165.300       5.5730000      1.60600
      166.800       5.5809999      1.60300
      168.200       5.5879998      1.60100
      169.700       5.5929999      1.60000
      171.200       5.5960002      1.60000
      172.700       5.5999999      1.60300
      174.200       5.6040001      1.60700
      175.700       5.6079998      1.61200
      177.200       5.6139998      1.61900
      178.800       5.6199999      1.62600
      180.300       5.6279998      1.63300
      181.900       5.6360002      1.64000
      183.500       5.6459999      1.64800
      185.100       5.6560001      1.65500
      186.700       5.6669998      1.66100
      188.300       5.6789999      1.66800
      190.000       5.6910000      1.67300
      191.600       5.7030001      1.67800
      193.300       5.7160001      1.68200
      195.000       5.7290001      1.68600
      196.700       5.7410002      1.68900
      198.400       5.7540002      1.69200
      200.100       5.7659998      1.69400
      201.900       5.7779999      1.69500
      203.600       5.7900000      1.69700
      205.400       5.8010001      1.69800
      207.200       5.8119998      1.69900
      209.000       5.8220000      1.70000
      210.900       5.8319998      1.70000
      212.700       5.8410001      1.70200
      214.500       5.8490000      1.70300
      216.400       5.8569999      1.70500
      218.300       5.8649998      1.70800
      220.200       5.8730001      1.71300
      222.100       5.8810000      1.71800
      224.100       5.8909998      1.72500
      226.000       5.9020000      1.73100
      228.000       5.9140000      1.73700
      230.000       5.9280000      1.74300
      232.000       5.9429998      1.74700
      234.000       5.9569998      1.75000
      236.100       5.9710002      1.75100
      238.100       5.9850001      1.75300
      240.200       5.9980001      1.75300
      242.300       6.0110002      1.75400
      244.400       6.0240002      1.75400
      246.600       6.0359998      1.75400
      248.700       6.0479999      1.75400
      250.900       6.0590000      1.75300
      253.100       6.0700002      1.75300
      255.300       6.0809999      1.75200
      257.500       6.0910001      1.75200
      259.700       6.0999999      1.75100
      262.000       6.1090002      1.75100
      264.300       6.1170001      1.75100
      266.600       6.1240001      1.75200
      268.900       6.1310000      1.75400
      271.300       6.1380000      1.75900
      273.600       6.1469998      1.76400
      276.000       6.1570001      1.77000
      278.400       6.1690001      1.77600
      280.900       6.1830001      1.78100
      283.300       6.1970000      1.78400
      285.800       6.2110000      1.78600
      288.300       6.2240000      1.78700
      290.800       6.2360001      1.78800
      293.400       6.2490001      1.79000
      295.900       6.2610002      1.79100
      298.500       6.2740002      1.79200
      301.100       6.2870002      1.79300
      303.700       6.2989998      1.79300
      306.400       6.3099999      1.79200
      309.100       6.3220000      1.79200
      311.700       6.3319998      1.79300
      314.500       6.3429999      1.79400
      317.200       6.3540001      1.79500
      320.000       6.3649998      1.79700
      322.800       6.3759999      1.79900
      325.600       6.3889999      1.80100
      328.400       6.4020000      1.80200
      331.300       6.4150000      1.80200
      334.200       6.4280000      1.80200
      337.100       6.4400001      1.80100
      340.100       6.4520001      1.80000
      343.000       6.4629998      1.80000
      346.000       6.4749999      1.80000
      349.000       6.4879999      1.79900
      352.100       6.5000000      1.79600
      355.200       6.5110002      1.79300
      358.300       6.5190001      1.78900
      361.400       6.5260000      1.78900
      364.500       6.5330000      1.79000
      367.700       6.5419998      1.79300
      370.900       6.5539999      1.79600
      374.200       6.5660000      1.79700
      377.400       6.5780001      1.79600
      380.700       6.5890002      1.79400
      384.000       6.5970001      1.79100
      387.400       6.6030002      1.78900
      390.800       6.6069999      1.79100
      394.200       6.6129999      1.79800
      397.600       6.6240001      1.80700
      401.100       6.6389999      1.81200
      404.600       6.6539998      1.81400
      408.100       6.6669998      1.81300
      411.700       6.6780000      1.81400
      415.300       6.6900001      1.81700
      418.900       6.7040000      1.81900
      422.600       6.7179999      1.82000
      426.300       6.7319999      1.81900
      430.000       6.7440000      1.81800
      433.700       6.7560000      1.81900
      437.500       6.7690001      1.82000
      441.300       6.7830000      1.82000
      445.200       6.7979999      1.81800
      449.100       6.8109999      1.81500
      453.000       6.8239999      1.81200
      456.900       6.8360000      1.80900
      460.900       6.8470001      1.80600
      464.900       6.8579998      1.80300
      469.000       6.8680000      1.80000
      473.100       6.8779998      1.79700
      477.200       6.8880000      1.79400
      481.400       6.8969998      1.79100
      485.600       6.9060001      1.78900
      489.800       6.9150000      1.78700
      494.100       6.9239998      1.78500
      498.400       6.9320002      1.78300
      502.800       6.9400001      1.78100
      507.200       6.9480000      1.78000
      511.600       6.9559999      1.77900
      516.000       6.9640002      1.77800
      520.600       6.9710002      1.77800
      525.100       6.9790001      1.77700
      529.700       6.9860001      1.77700
      534.300       6.9940000      1.77800
      539.000       7.0009999      1.77900
      543.700       7.0089998      1.78000
      548.400       7.0159998      1.78100
      553.200       7.0240002      1.78300
      558.000       7.0320001      1.78600
      562.900       7.0400000      1.78800
      567.800       7.0489998      1.79100
      572.800       7.0580001      1.79400
      577.800       7.0669999      1.79700
      582.800       7.0770001      1.80000
      587.900       7.0869999      1.80400
      593.000       7.0970001      1.80700
      598.200       7.1079998      1.81000
      603.400       7.1190000      1.81400
      608.700       7.1310000      1.81700
      614.000       7.1430001      1.82000
      619.400       7.1550002      1.82300
      624.800       7.1680002      1.82500
      630.200       7.1810002      1.82700
      635.700       7.1939998      1.82900
      641.300       7.2080002      1.83100
      646.900       7.2210002      1.83200
      652.500       7.2350001      1.83200
      658.200       7.2490001      1.83300
      663.900       7.2620001      1.83200
      669.700       7.2760000      1.83200
      675.600       7.2890000      1.83100
      681.500       7.3030000      1.82900
      687.400       7.3160000      1.82800
      693.400       7.3280001      1.82600
      699.500       7.3410001      1.82400
      705.600       7.3530002      1.82200
      711.700       7.3649998      1.82000
      718.000       7.3769999      1.81700
      724.200       7.3880000      1.81500
      730.500       7.4000001      1.81200
      736.900       7.4109998      1.81000
      743.400       7.4210000      1.80700
      749.800       7.4320002      1.80500
      756.400       7.4419999      1.80200
      763.000       7.4530001      1.80000
      769.600       7.4629998      1.79800
      776.400       7.4730000      1.79500
      783.100       7.4829998      1.79300
      790.000       7.4920001      1.79100
      796.900       7.5019999      1.78900
      803.800       7.5120001      1.78700
      810.800       7.5209999      1.78500
      817.900       7.5310001      1.78300
      825.100       7.5400000      1.78000
      832.300       7.5500002      1.77800
      839.500       7.5590000      1.77600
      846.800       7.5679998      1.77400
      854.200       7.5770001      1.77200
      861.700       7.5850000      1.77000
      869.200       7.5939999      1.76700
      876.800       7.6020002      1.76500
      884.500       7.6100001      1.76300
      892.200       7.6180000      1.76100
      900.000       7.6250000      1.76000
      907.800       7.6329999      1.75800
      915.700       7.6399999      1.75700
      923.700       7.6469998      1.75500
      931.800       7.6539998      1.75400
      939.900       7.6599998      1.75400
      948.100       7.6669998      1.75400
      956.400       7.6729999      1.75400
      964.700       7.6799998      1.75400
      973.200       7.6869998      1.75500
      981.700       7.6929998      1.75600
      990.200       7.6999998      1.75700
      998.900       7.7069998      1.75900
      1008.00       7.7140002      1.76000
      1016.00       7.7220001      1.76200
      1025.00       7.7290001      1.76400
      1034.00       7.7370000      1.76600
      1043.00       7.7440000      1.76900
      1052.00       7.7519999      1.77100
      1062.00       7.7600002      1.77400
      1071.00       7.7690001      1.77600
      1080.00       7.7770000      1.77900
      1090.00       7.7849998      1.78200
      1099.00       7.7940001      1.78400
      1109.00       7.8020000      1.78700
      1118.00       7.8109999      1.79000
      1128.00       7.8200002      1.79400
      1138.00       7.8290000      1.79700
      1148.00       7.8379998      1.80000
      1158.00       7.8480000      1.80400
      1168.00       7.8569999      1.80800
      1178.00       7.8670001      1.81100
      1188.00       7.8769999      1.81500
      1199.00       7.8870001      1.81900
      1209.00       7.8969998      1.82400
      1220.00       7.9080000      1.82800
      1231.00       7.9180002      1.83200
      1241.00       7.9299998      1.83700
      1252.00       7.9410000      1.84200
      1263.00       7.9530001      1.84700
      1274.00       7.9650002      1.85100
      1285.00       7.9780002      1.85600
      1296.00       7.9920001      1.86100
      1308.00       8.0059996      1.86500
      1319.00       8.0200005      1.87000
      1331.00       8.0349998      1.87400
      1342.00       8.0500002      1.87700
      1354.00       8.0660000      1.88000
      1366.00       8.0819998      1.88300
      1378.00       8.0979996      1.88500
      1390.00       8.1140003      1.88700
      1402.00       8.1300001      1.88800
      1414.00       8.1470003      1.88900
      1426.00       8.1630001      1.89000
      1439.00       8.1800003      1.89100
      1451.00       8.1960001      1.89100
      1464.00       8.2139997      1.89100
      1477.00       8.2309999      1.89100
      1490.00       8.2500000      1.89100
      1503.00       8.2679996      1.88900
      1516.00       8.2880001      1.88700
      1529.00       8.3070002      1.88300
      1542.00       8.3269997      1.87800
      1556.00       8.3459997      1.87100
      1569.00       8.3649998      1.86300
      1583.00       8.3830004      1.85400
      1597.00       8.3990002      1.84400
      1611.00       8.4139996      1.83200
      1625.00       8.4280005      1.82100
      1639.00       8.4399996      1.80900
      1653.00       8.4510002      1.79600
      1668.00       8.4600000      1.78400
      1682.00       8.4680004      1.77300
      1697.00       8.4750004      1.76100
      1712.00       8.4809999      1.75100
      1727.00       8.4860001      1.74100
      1742.00       8.4899998      1.73200
      1757.00       8.4930000      1.72400
      1773.00       8.4960003      1.71600
      1788.00       8.4989996      1.71000
      1804.00       8.5010004      1.70300
      1819.00       8.5019999      1.69800
      1835.00       8.5039997      1.69300
      1851.00       8.5039997      1.68800
      1867.00       8.5050001      1.68500
      1884.00       8.5050001      1.68100
      1900.00       8.5039997      1.67900
      1917.00       8.5019999      1.67600
      1933.00       8.4980001      1.67400
      1950.00       8.4919996      1.67200
      1967.00       8.4790001      1.67100
      1984.00       8.4350004      1.67000
