 ICOMP=17: Draine 2003 astrosilicate                 0.1000 = grain radius (micron)   20.00 = grain temperature (K)     837 = number of wavelengths  wave(um)      eps_1-1    eps_2      Re(n)-1     Im(n)

Wavelength [microns]  Re(m)       Im(m)
  6.19920e-05       1.0000000      0.00000
  6.52547e-05      0.99999785  2.17300e-08
  6.88800e-05      0.99999762  2.67600e-08
  7.29318e-05      0.99999732  3.33200e-08
  7.74900e-05      0.99999696  4.20200e-08
  8.26560e-05      0.99999654  5.37500e-08
  8.85600e-05      0.99999601  6.98500e-08
  9.53723e-05      0.99999541  9.25000e-08
  0.000103320      0.99999458  1.25100e-07
  0.000112713      0.99999356  1.73400e-07
  0.000123984      0.99999219  2.47500e-07
  0.000130510      0.99999142  2.99500e-07
  0.000137760      0.99999040  3.65800e-07
  0.000140891      0.99998999  3.97500e-07
  0.000144167      0.99998951  4.32600e-07
  0.000147600      0.99998903  4.71700e-07
  0.000151200      0.99998856  5.15500e-07
  0.000154980      0.99998796  5.64000e-07
  0.000156942      0.99998772  5.91000e-07
  0.000158954      0.99998742  6.19000e-07
  0.000161018      0.99998713  6.49000e-07
  0.000163137      0.99998677  6.80500e-07
  0.000165312      0.99998647  7.14000e-07
  0.000167546      0.99998617  7.50000e-07
  0.000169841      0.99998581  7.88000e-07
  0.000171723      0.99998564  9.03500e-07
  0.000171961      0.99998564  8.88500e-07
  0.000172200      0.99998564  8.84000e-07
  0.000172320      0.99998564  8.82000e-07
  0.000172439      0.99998564  8.83000e-07
  0.000172560      0.99998558  9.04500e-07
  0.000172680      0.99998558  9.25500e-07
  0.000172800      0.99998558  9.53500e-07
  0.000172920      0.99998564  9.68000e-07
  0.000173041      0.99998569  9.55500e-07
  0.000173162      0.99998569  9.23000e-07
  0.000173283      0.99998569  8.70500e-07
  0.000173404      0.99998564  8.31000e-07
  0.000173526      0.99998564  8.33500e-07
  0.000173647      0.99998558  8.80500e-07
  0.000173769      0.99998558  9.11500e-07
  0.000173891      0.99998558  9.50510e-07
  0.000173915      0.99998564  9.71000e-07
  0.000173939      0.99998569  1.01200e-06
  0.000173964      0.99998575  1.06000e-06
  0.000173988      0.99998581  1.11400e-06
  0.000174013      0.99998587  1.17500e-06
  0.000174037      0.99998587  1.22300e-06
  0.000174061      0.99998593  1.24300e-06
  0.000174086      0.99998599  1.19600e-06
  0.000174110      0.99998605  1.12200e-06
  0.000174135      0.99998611  1.04100e-06
  0.000174159      0.99998611  9.59500e-07
  0.000174184      0.99998617  8.71500e-07
  0.000174208      0.99998617  7.84000e-07
  0.000174233      0.99998623  6.48500e-07
  0.000174257      0.99998623  5.13000e-07
  0.000174282      0.99998617  3.77600e-07
  0.000174306      0.99998617  3.10000e-07
  0.000174331      0.99998611  2.83000e-07
  0.000174355      0.99998611  2.76300e-07
  0.000174380      0.99998605  2.76500e-07
  0.000174404      0.99998599  2.76600e-07
  0.000174429      0.99998593  2.70000e-07
  0.000174453      0.99998587  2.56500e-07
  0.000174478      0.99998581  2.49900e-07
  0.000174502      0.99998581  2.43200e-07
  0.000174625      0.99998569  2.43900e-07
  0.000177120      0.99998480  2.57600e-07
  0.000190745      0.99998200  3.42900e-07
  0.000206640      0.99997866  4.66600e-07
  0.000225425      0.99997449  6.51500e-07
  0.000247968      0.99996907  9.38000e-07
  0.000275520      0.99996156  1.40100e-06
  0.000309960      0.99995118  2.18800e-06
  0.000354240      0.99993604  3.61500e-06
  0.000413280      0.99991292  6.42100e-06
  0.000442800      0.99989998  8.28100e-06
  0.000476861      0.99988413  1.08800e-05
  0.000516600      0.99986428  1.45600e-05
  0.000563564      0.99983931  1.99500e-05
  0.000619920      0.99980801  2.80700e-05
  0.000652547      0.99978989  3.36700e-05
  0.000659489      0.99978548  3.49500e-05
  0.000661248      0.99978417  3.62500e-05
  0.000661601      0.99978411  3.63000e-05
  0.000661954      0.99978387  3.63600e-05
  0.000662308      0.99978340  3.64100e-05
  0.000662662      0.99978298  3.64700e-05
  0.000663016      0.99978238  3.70500e-05
  0.000663371      0.99978191  3.76400e-05
  0.000663726      0.99978149  3.84000e-05
  0.000664081      0.99978143  3.95100e-05
  0.000664437      0.99978203  4.09700e-05
  0.000664794      0.99978298  4.20900e-05
  0.000664936      0.99978340  4.22900e-05
  0.000665150      0.99978387  4.18000e-05
  0.000665507      0.99978483  4.10700e-05
  0.000665865      0.99978560  4.10400e-05
  0.000666222      0.99978590  4.11000e-05
  0.000666581      0.99978560  3.92200e-05
  0.000666939      0.99978518  3.80400e-05
  0.000667298      0.99978369  3.84500e-05
  0.000667658      0.99978250  3.90400e-05
  0.000668017      0.99978203  4.08700e-05
  0.000668377      0.99978250  4.23400e-05
  0.000668738      0.99978417  4.41700e-05
  0.000669099      0.99978548  4.40600e-05
  0.000669460      0.99978632  4.18200e-05
  0.000669822      0.99978608  4.04600e-05
  0.000670184      0.99978489  4.07000e-05
  0.000670329      0.99978399  4.09000e-05
  0.000670474      0.99978280  4.12800e-05
  0.000670619      0.99978149  4.14800e-05
  0.000670764      0.99978048  4.16900e-05
  0.000670909      0.99978012  4.27800e-05
  0.000671054      0.99978030  4.49300e-05
  0.000671200      0.99978220  4.81600e-05
  0.000671345      0.99978620  5.31600e-05
  0.000671491      0.99979037  5.71110e-05
  0.000671636      0.99979311  6.10090e-05
  0.000671781      0.99979538  6.31600e-05
  0.000671927      0.99979788  5.96600e-05
  0.000672073      0.99980068  4.97300e-05
  0.000672219      0.99980313  4.12200e-05
  0.000672364      0.99980527  3.76900e-05
  0.000672729      0.99980348  3.23300e-05
  0.000673094      0.99979782  3.05200e-05
  0.000673460      0.99979460  3.02200e-05
  0.000673826      0.99979240  2.95600e-05
  0.000674193      0.99979103  2.94400e-05
  0.000674559      0.99978989  2.94900e-05
  0.000674927      0.99978900  2.93700e-05
  0.000675294      0.99978799  2.85300e-05
  0.000675368      0.99978793  2.81900e-05
  0.000675662      0.99978709  2.82300e-05
  0.000688800      0.99977040  3.02800e-05
  0.000729318      0.99973869  3.72300e-05
  0.000774900      0.99970448  4.63100e-05
  0.000826560      0.99966508  5.83200e-05
  0.000855062      0.99964309  6.57700e-05
  0.000885600      0.99961960  7.44800e-05
  0.000898435      0.99960971  7.83800e-05
  0.000911647      0.99959928  8.24800e-05
  0.000918400      0.99959320  8.46800e-05
  0.000925254      0.99958593  8.87900e-05
  0.000928719      0.99958158  9.29400e-05
  0.000930113      0.99957973  9.60900e-05
  0.000930811      0.99957931  9.86400e-05
  0.000931510      0.99958020  0.000102000
  0.000932210      0.99958301  0.000104600
  0.000932491      0.99958420  0.000105100
  0.000932912      0.99958563  0.000104000
  0.000933615      0.99958712  0.000102400
  0.000934318      0.99958807  0.000102500
  0.000935023      0.99958950  0.000102700
  0.000935728      0.99958968  9.85400e-05
  0.000936435      0.99958760  9.59900e-05
  0.000937143      0.99958408  9.69900e-05
  0.000937852      0.99958140  9.83900e-05
  0.000938562      0.99958009  0.000102600
  0.000939273      0.99958080  0.000105900
  0.000939985      0.99958438  0.000110100
  0.000940698      0.99958879  0.000110000
  0.000941412      0.99959087  0.000105000
  0.000942128      0.99958920  0.000102000
  0.000942844      0.99958599  0.000102700
  0.000943562      0.99958211  0.000104300
  0.000944280      0.99957567  0.000107500
  0.000944568      0.99957478  0.000112400
  0.000944856      0.99957520  0.000119700
  0.000945144      0.99957907  0.000131000
  0.000945432      0.99958891  0.000139900
  0.000945721      0.99960220  0.000148800
  0.000946009      0.99961352  0.000153700
  0.000946298      0.99962139  0.000145800
  0.000946587      0.99962968  0.000123400
  0.000946876      0.99963617  0.000104300
  0.000947166      0.99963838  9.63800e-05
  0.000947890      0.99962360  8.43800e-05
  0.000948615      0.99961382  8.03300e-05
  0.000949342      0.99960721  7.97800e-05
  0.000950069      0.99960268  7.83800e-05
  0.000950798      0.99959922  7.81800e-05
  0.000951527      0.99959660  7.83800e-05
  0.000952258      0.99959499  7.81800e-05
  0.000952990      0.99959272  7.63800e-05
  0.000953136      0.99959230  7.55800e-05
  0.000953723      0.99959022  7.57800e-05
  0.000991872      0.99953592  8.70400e-05
   0.00103320      0.99949342  0.000100500
   0.00107812      0.99944830  0.000116600
   0.00112713      0.99939883  0.000136100
   0.00118080      0.99934429  0.000159800
   0.00123984      0.99928480  0.000188700
   0.00124607      0.99927819  0.000191900
   0.00125236      0.99927223  0.000195200
   0.00125872      0.99926567  0.000198600
   0.00126514      0.99925917  0.000202000
   0.00127163      0.99925268  0.000205600
   0.00127819      0.99924618  0.000209200
   0.00128481      0.99923968  0.000212900
   0.00129150      0.99923271  0.000216600
   0.00129826      0.99922621  0.000220500
   0.00130510      0.99921972  0.000224100
   0.00131200      0.99921322  0.000227800
   0.00131898      0.99920619  0.000231600
   0.00132603      0.99919868  0.000235500
   0.00133316      0.99919170  0.000239600
   0.00134037      0.99918419  0.000243700
   0.00134765      0.99917668  0.000248400
   0.00135502      0.99916971  0.000253400
   0.00136246      0.99916267  0.000258600
   0.00136999      0.99915570  0.000263700
   0.00137302      0.99915367  0.000265700
   0.00137760      0.99914968  0.000268400
   0.00138530      0.99914318  0.000272500
   0.00139308      0.99913669  0.000276100
   0.00139622      0.99913359  0.000277500
   0.00139937      0.99913013  0.000279000
   0.00140253      0.99912661  0.000280600
   0.00140571      0.99912310  0.000282400
   0.00140891      0.99911958  0.000284400
   0.00141212      0.99911612  0.000286800
   0.00141534      0.99911261  0.000289600
   0.00141858      0.99910963  0.000292200
   0.00142184      0.99910712  0.000294700
   0.00142510      0.99910408  0.000297300
   0.00142674      0.99910259  0.000298500
   0.00142839      0.99910158  0.000299700
   0.00143003      0.99909961  0.000300900
   0.00143169      0.99909860  0.000302100
   0.00143334      0.99909711  0.000303500
   0.00143500      0.99909562  0.000304900
   0.00143666      0.99909359  0.000306300
   0.00143833      0.99909210  0.000308000
   0.00144000      0.99909008  0.000310300
   0.00144167      0.99908912  0.000312800
   0.00144335      0.99908859  0.000315500
   0.00144503      0.99908859  0.000318400
   0.00144672      0.99908960  0.000320900
   0.00144841      0.99909163  0.000322600
   0.00145010      0.99909359  0.000322500
   0.00145180      0.99909461  0.000321500
   0.00145351      0.99909508  0.000320400
   0.00145521      0.99909508  0.000319200
   0.00145692      0.99909461  0.000317900
   0.00145863      0.99909461  0.000316600
   0.00146035      0.99909359  0.000313900
   0.00146208      0.99909210  0.000311200
   0.00146380      0.99908811  0.000308500
   0.00146553      0.99908358  0.000307700
   0.00146727      0.99907959  0.000308100
   0.00146901      0.99907613  0.000309200
   0.00147075      0.99907309  0.000310400
   0.00147249      0.99907058  0.000311600
   0.00147424      0.99906808  0.000312600
   0.00147600      0.99906558  0.000313500
   0.00147776      0.99906307  0.000314500
   0.00147952      0.99906057  0.000315500
   0.00148484      0.99905360  0.000319400
   0.00149378      0.99904311  0.000325800
   0.00150284      0.99903357  0.000332300
   0.00151200      0.99902409  0.000339000
   0.00152128      0.99901509  0.000345900
   0.00153067      0.99900663  0.000353000
   0.00154017      0.99899799  0.000360200
   0.00154980      0.99899101  0.000367600
   0.00155955      0.99898398  0.000373000
   0.00156942      0.99897599  0.000378500
   0.00157941      0.99896801  0.000384100
   0.00158954      0.99896002  0.000390000
   0.00159979      0.99895102  0.000395900
   0.00161018      0.99894202  0.000401900
   0.00162071      0.99893302  0.000408200
   0.00163137      0.99892402  0.000414500
   0.00164217      0.99891597  0.000421100
   0.00165312      0.99890703  0.000427700
   0.00166422      0.99889702  0.000434600
   0.00167546      0.99888802  0.000441500
   0.00168686      0.99887699  0.000448600
   0.00169841      0.99886101  0.000455700
   0.00170074      0.99885702  0.000457100
   0.00170308      0.99885100  0.000458400
   0.00170542      0.99884301  0.000459800
   0.00170777      0.99882901  0.000461600
   0.00171012      0.99880701  0.000472000
   0.00171130      0.99879801  0.000487600
   0.00171249      0.99879599  0.000509100
   0.00171367      0.99879998  0.000525600
   0.00171485      0.99880099  0.000530100
   0.00171604      0.99879003  0.000534100
   0.00171723      0.99877298  0.000565200
   0.00171842      0.99878001  0.000625800
   0.00171913      0.99880898  0.000674300
   0.00171961      0.99883902  0.000704300
   0.00172009      0.99887598  0.000724300
   0.00172057      0.99891901  0.000730800
   0.00172104      0.99896199  0.000721700
   0.00172152      0.99900073  0.000698700
   0.00172200      0.99903268  0.000664100
   0.00172439      0.99904960  0.000474000
   0.00172680      0.99896699  0.000417300
   0.00172921      0.99891001  0.000414200
   0.00173162      0.99887502  0.000415200
   0.00173404      0.99884301  0.000416300
   0.00173647      0.99880499  0.000417400
   0.00173891      0.99874699  0.000422500
   0.00174013      0.99870300  0.000436400
   0.00174135      0.99865597  0.000473200
   0.00174257      0.99862802  0.000540200
   0.00174380      0.99862897  0.000615800
   0.00174503      0.99864101  0.000658400
   0.00174625      0.99861699  0.000663900
   0.00174748      0.99854499  0.000714000
   0.00174872      0.99850202  0.000909400
   0.00174921      0.99851900   0.00102500
   0.00174970      0.99857098   0.00114500
   0.00175020      0.99865901   0.00126500
   0.00175069      0.99878198   0.00137300
   0.00175119      0.99893200   0.00144600
   0.00175168      0.99909163   0.00146900
   0.00175218      0.99925423   0.00143700
   0.00175267      0.99940568   0.00135200
   0.00175366      0.99962348   0.00107500
   0.00175490      0.99968660  0.000699700
   0.00175615      0.99958497  0.000453500
   0.00175739      0.99943638  0.000347500
   0.00175864      0.99931431  0.000316300
   0.00175989      0.99923420  0.000310000
   0.00176114      0.99918121  0.000309500
   0.00176364      0.99911213  0.000310400
   0.00176615      0.99906611  0.000311500
   0.00176867      0.99903160  0.000312700
   0.00177120      0.99900448  0.000314000
   0.00177373      0.99898201  0.000315400
   0.00177627      0.99896199  0.000316700
   0.00177882      0.99894601  0.000318100
   0.00178138      0.99893099  0.000319500
   0.00178394      0.99891698  0.000320800
   0.00179687      0.99886298  0.000327700
   0.00180999      0.99882102  0.000335800
   0.00182329      0.99878597  0.000344200
   0.00187855      0.99867201  0.000380300
   0.00193725      0.99857301  0.000421100
   0.00199974      0.99847698  0.000467500
   0.00206640      0.99838102  0.000520300
   0.00210142      0.99833202  0.000549400
   0.00213765      0.99827898  0.000580500
   0.00215624      0.99824899  0.000597000
   0.00217516      0.99820298  0.000614100
   0.00219441      0.99813497  0.000660700
   0.00220612      0.99809301  0.000725400
   0.00221400      0.99807101  0.000788500
   0.00221796      0.99806398  0.000841100
   0.00222193      0.99808800  0.000910700
   0.00222592      0.99815500  0.000963800
   0.00222752      0.99819100  0.000973300
   0.00222993      0.99823701  0.000949700
   0.00223395      0.99826002  0.000914600
   0.00223798      0.99827302  0.000912600
   0.00224202      0.99832600  0.000915000
   0.00224609      0.99835199  0.000824400
   0.00225016      0.99829102  0.000767300
   0.00225426      0.99822599  0.000786900
   0.00225836      0.99817300  0.000815000
   0.00226248      0.99814999  0.000903200
   0.00226662      0.99817097  0.000974300
   0.00227077      0.99823499   0.00106300
   0.00227285      0.99831200   0.00109900
   0.00227494      0.99838698   0.00105700
   0.00227912      0.99842697  0.000948000
   0.00228331      0.99838001  0.000881900
   0.00228753      0.99831599  0.000893500
   0.00229176      0.99826300  0.000927100
   0.00229600      0.99813002  0.000994400
   0.00230026      0.99808300   0.00137800
   0.00230453      0.99850702   0.00188900
   0.00230625      0.99891901   0.00199300
   0.00230797      0.99934942   0.00182000
   0.00230969      0.99959219   0.00133300
   0.00231141      0.99957639  0.000914900
   0.00231313      0.99944258  0.000741400
   0.00231486      0.99931490  0.000620400
   0.00231659      0.99921882  0.000516400
   0.00231832      0.99912220  0.000447100
   0.00232006      0.99903262  0.000412900
   0.00232180      0.99895799  0.000387400
   0.00232615      0.99883902  0.000371700
   0.00233053      0.99875301  0.000338400
   0.00233492      0.99867600  0.000331400
   0.00233932      0.99862498  0.000333200
   0.00234374      0.99859500  0.000326200
   0.00234596      0.99858999  0.000318200
   0.00234818      0.99857002  0.000283700
   0.00234907      0.99855697  0.000266200
   0.00236160      0.99841499  0.000271100
   0.00238431      0.99827403  0.000280100
   0.00247968      0.99792099  0.000320100
   0.00258300      0.99763697  0.000367500
   0.00269530      0.99735397  0.000424300
   0.00281782      0.99705100  0.000492700
   0.00295200      0.99671602  0.000575900
   0.00309960      0.99633998  0.000677500
   0.00326274      0.99591100  0.000803300
   0.00344400      0.99541700  0.000960900
   0.00364659      0.99484199   0.00115900
   0.00387450      0.99416900   0.00141200
   0.00413280      0.99336898   0.00174000
   0.00427531      0.99291700   0.00194000
   0.00442800      0.99241298   0.00217000
   0.00459200      0.99186999   0.00243600
   0.00476862      0.99126500   0.00274300
   0.00495936      0.99059999   0.00310100
   0.00516600      0.98984998   0.00352000
   0.00539061      0.98904997   0.00401100
   0.00563564      0.98816001   0.00459100
   0.00590400      0.98715001   0.00527800
   0.00619920      0.98604000   0.00609500
   0.00635815      0.98544002   0.00656100
   0.00652547      0.98479003   0.00706200
   0.00670184      0.98409998   0.00762100
   0.00688800      0.98334998   0.00827300
   0.00696539      0.98303002   0.00857600
   0.00704455      0.98275000   0.00893400
   0.00708480      0.98264003   0.00911300
   0.00710103      0.98260999   0.00917500
   0.00712552      0.98255998   0.00924100
   0.00716671      0.98241001   0.00935500
   0.00720837      0.98227000   0.00949800
   0.00725053      0.98215002   0.00964700
   0.00729318      0.98201001   0.00973000
   0.00733633      0.98180002   0.00983900
   0.00738000      0.98158002    0.0100100
   0.00742419      0.98136997    0.0101900
   0.00746892      0.98119003    0.0104300
   0.00751418      0.98104000    0.0106500
   0.00756000      0.98091000    0.0108900
   0.00758312      0.98088998    0.0110100
   0.00760638      0.98087001    0.0110600
   0.00765333      0.98071998    0.0111600
   0.00770087      0.98051000    0.0112800
   0.00774900      0.98027998    0.0114700
   0.00779774      0.98005003    0.0116800
   0.00784709      0.97978002    0.0119300
   0.00786700      0.97965002    0.0120900
   0.00788702      0.97953999    0.0123000
   0.00790714      0.97950000    0.0125800
   0.00792737      0.97956002    0.0128200
   0.00794769      0.97968000    0.0130600
   0.00796812      0.97995001    0.0132200
   0.00798866      0.98027998    0.0131500
   0.00800930      0.98040998    0.0128300
   0.00803005      0.98026001    0.0125700
   0.00805091      0.98005998    0.0125100
   0.00810353      0.97965997    0.0125000
   0.00815684      0.97927999    0.0126400
   0.00821086      0.97898000    0.0128400
   0.00826560      0.97869998    0.0130300
   0.00832107      0.97842997    0.0132600
   0.00837730      0.97816998    0.0134800
   0.00843429      0.97794002    0.0137100
   0.00849206      0.97768998    0.0139100
   0.00850370      0.97763002    0.0139500
   0.00855062      0.97740000    0.0141400
   0.00885600      0.97605997    0.0154300
   0.00918400      0.97435999    0.0168500
   0.00953723      0.97233999    0.0191300
   0.00961116      0.97192001    0.0197600
   0.00968625      0.97148001    0.0204900
   0.00976252      0.97113001    0.0214300
   0.00984000      0.97113001    0.0225800
   0.00991872      0.97158003    0.0235400
   0.00995056      0.97193003    0.0237900
   0.00999871      0.97219002    0.0237300
    0.0101626      0.97250003    0.0240700
    0.0103320      0.97220999    0.0238500
    0.0104188      0.97138000    0.0236400
    0.0105071      0.97030002    0.0243500
    0.0105969      0.96938002    0.0251900
    0.0106883      0.96881002    0.0267800
    0.0107812      0.96877998    0.0282000
    0.0108758      0.96950001    0.0298600
    0.0109720      0.97097999    0.0303100
    0.0110110      0.97140002    0.0299300
    0.0110700      0.97135001    0.0294200
    0.0111697      0.97047001    0.0290700
    0.0112713      0.96939999    0.0297700
    0.0113747      0.96856999    0.0307700
    0.0114800      0.96656001    0.0321300
    0.0115873      0.96566999    0.0376900
    0.0116966      0.97084999    0.0448900
    0.0117409      0.97653997    0.0463100
    0.0118080      0.98330998    0.0412000
    0.0119215      0.98295999    0.0308100
    0.0120373      0.97843999    0.0281300
    0.0121553      0.97558999    0.0277000
    0.0122756      0.97390997    0.0280800
    0.0123984      0.97258002    0.0280500
    0.0125236      0.97112000    0.0284800
    0.0126514      0.97002000    0.0291500
    0.0127819      0.96925998    0.0297400
    0.0129150      0.96836001    0.0298900
    0.0129420      0.96797001    0.0298500
    0.0130510      0.96683002    0.0309800
    0.0131898      0.96649998    0.0325500
    0.0132461      0.96686000    0.0330100
    0.0133316      0.96720999    0.0327500
    0.0134765      0.96630001    0.0320800
    0.0136246      0.96485001    0.0324700
    0.0137760      0.96366000    0.0331900
    0.0139308      0.96262997    0.0340500
    0.0140891      0.96166998    0.0349000
    0.0142510      0.96073997    0.0358500
    0.0144167      0.95986003    0.0368400
    0.0145863      0.95905000    0.0378600
    0.0147600      0.95824999    0.0388300
    0.0147952      0.95806998    0.0390100
    0.0149378      0.95736003    0.0398600
    0.0151200      0.95652002    0.0409500
    0.0153067      0.95568001    0.0420900
    0.0154980      0.95485997    0.0432600
    0.0156942      0.95403999    0.0444500
    0.0158954      0.95319998    0.0456600
    0.0161018      0.95232999    0.0469100
    0.0163137      0.95143002    0.0481900
    0.0165312      0.95020002    0.0495300
    0.0167546      0.94931000    0.0518400
    0.0168686      0.94946003    0.0527700
    0.0169841      0.94942999    0.0531900
    0.0172200      0.94853997    0.0541400
    0.0174625      0.94742000    0.0557300
    0.0177120      0.94716001    0.0576500
    0.0179687      0.94655001    0.0580000
    0.0182329      0.94437999    0.0588700
    0.0185051      0.94221002    0.0612900
    0.0187855      0.94058001    0.0640000
    0.0190745      0.93936998    0.0672800
    0.0191038      0.93935001    0.0676500
    0.0194028      0.93888998    0.0708300
    0.0197113      0.93922001    0.0743700
    0.0198692      0.94035000    0.0758800
    0.0200297      0.94130999    0.0759100
    0.0203586      0.94068998    0.0755800
    0.0206985      0.93835998    0.0763600
    0.0210499      0.93563998    0.0788800
    0.0211939      0.93466002    0.0799800
    0.0213398      0.93370003    0.0812900
    0.0214877      0.93268001    0.0824500
    0.0216377      0.93096000    0.0836800
    0.0217898      0.92879999    0.0859200
    0.0219441      0.92686999    0.0893900
    0.0221005      0.92539001    0.0941200
    0.0222593      0.92636001     0.100700
    0.0224202      0.92962998     0.106000
    0.0225836      0.93494999     0.111100
    0.0227494      0.94388998     0.113700
    0.0229176      0.95402998     0.109900
    0.0230883      0.95806998    0.0995700
    0.0232615      0.95476997    0.0915400
    0.0234374      0.95012999    0.0892000
    0.0236160      0.94700998    0.0879100
    0.0238431      0.94300002    0.0869600
    0.0243106      0.93590999    0.0884700
    0.0247968      0.93084002    0.0920700
    0.0253029      0.92671001    0.0953900
    0.0258300      0.92265999    0.0995500
    0.0263796      0.91921997     0.104300
    0.0269530      0.91633999     0.109000
    0.0275520      0.91351998     0.113300
    0.0277369      0.91215998     0.114200
    0.0281782      0.90917003     0.118300
    0.0295200      0.90222001     0.130800
    0.0309960      0.89569998     0.145000
    0.0326274      0.88929999     0.161100
    0.0344400      0.88300002     0.179400
    0.0364659      0.87669998     0.200200
    0.0387450      0.86960000     0.223900
    0.0413280      0.85710001     0.252000
    0.0427531      0.85150003     0.276000
    0.0442800      0.85170001     0.299400
    0.0459200      0.85350001     0.322200
    0.0476862      0.85570002     0.344700
    0.0495936      0.85750002     0.367300
    0.0516600      0.85729998     0.390700
    0.0539061      0.85189998     0.416700
    0.0563564      0.83789998     0.453500
    0.0590400      0.82529998     0.515000
    0.0619920      0.83539999     0.598500
    0.0652547      0.87370002     0.686800
    0.0688800      0.93888998     0.772200
    0.0729318       1.0324900     0.847500
    0.0774900       1.1560000     0.901800
    0.0826560       1.3088000     0.890500
    0.0885600       1.3296000     0.869400
    0.0911647       1.3738999     0.917500
    0.0932211       1.4293001     0.932600
    0.0953723       1.4828000     0.936100
    0.0976252       1.5360999     0.933200
    0.0999952       1.5906999     0.926300
     0.102466       1.6515000     0.912200
     0.105000       1.7114000     0.873500
     0.107812       1.7476001     0.832600
     0.110997       1.7814000     0.794600
     0.114800       1.8155000     0.755200
     0.118001       1.8413000     0.725600
     0.121553       1.8675001     0.695600
     0.124996       1.8921000     0.668800
     0.127819       1.9115000     0.648200
     0.130509       1.9307001     0.629300
     0.133316       1.9510000     0.610500
     0.136246       1.9739001     0.591200
     0.138995       1.9979000     0.573400
     0.140891       2.0170000     0.560900
     0.142510       2.0369999     0.548300
     0.144167       2.0599999     0.529700
     0.145864       2.0820000     0.504400
     0.149001       2.1090000     0.448900
     0.154980       2.1199999     0.336800
     0.160000       2.1009998     0.260100
     0.165312       2.0690000     0.197600
     0.170004       2.0390000     0.157100
     0.180000       1.9775000    0.0996200
     0.189985       1.9261000    0.0667700
     0.200006       1.8845999    0.0462200
     0.210000       1.8494999    0.0346300
     0.213766       1.8383000    0.0319300
     0.217516       1.8276000    0.0299300
     0.219014       1.8238001    0.0293100
     0.221400       1.8177000    0.0285000
     0.225425       1.8080001    0.0276500
     0.229983       1.7986000    0.0273200
     0.233932       1.7914000    0.0272400
     0.238431       1.7838000    0.0273600
     0.240000       1.7816000    0.0274400
     0.250018       1.7686000    0.0282700
     0.258300       1.7598000    0.0284400
     0.273998       1.7465999    0.0286900
     0.285021       1.7392000    0.0288100
     0.291727       1.7351000    0.0288800
     0.309960       1.7261000    0.0290600
     0.326274       1.7200000    0.0291600
     0.344018       1.7144001    0.0292800
     0.364981       1.7091000    0.0293800
     0.381489       1.7058001    0.0294600
     0.399948       1.7028000    0.0295400
     0.433966       1.6983000    0.0296200
     0.439972       1.6977000    0.0296400
     0.486021       1.6940000    0.0297300
     0.550062       1.6904000    0.0298600
     0.656347       1.6877999    0.0300600
     0.700079       1.6873000    0.0301600
     0.799897       1.6863000    0.0304000
     0.899739       1.6862000    0.0306000
     0.999871       1.6863000    0.0307700
      1.12713       1.6863000    0.0310100
      1.23984       1.6861000    0.0312000
      1.24996       1.6859000    0.0312300
      1.30509       1.6859000    0.0314000
      1.37760       1.6860000    0.0316400
      1.45863       1.6856000    0.0318900
      1.54980       1.6856000    0.0321800
      1.65004       1.6851001    0.0324600
      1.77120       1.6845000    0.0328200
      1.90745       1.6835001    0.0333300
      2.06640       1.6825000    0.0339500
      2.12192       1.6819999    0.0341600
      2.19986       1.6811000    0.0344800
      2.25426       1.6807001    0.0347000
      2.42393       1.6789000    0.0353800
      2.47968       1.6780000    0.0356000
      2.75520       1.6744000    0.0367700
      3.09960       1.6684000    0.0382700
      3.26274       1.6653000    0.0391500
      3.40148       1.6624000    0.0397700
      3.64659       1.6567000    0.0406700
      3.87450       1.6507000    0.0414400
      4.13280       1.6429000    0.0422800
      4.42800       1.6327000    0.0429600
      4.76862       1.6187000    0.0439200
      4.99935       1.6075001    0.0447700
      5.16600       1.5987999    0.0455000
      5.51040       1.5785000    0.0475100
      5.63564       1.5703000    0.0484000
      5.90400       1.5510000    0.0506100
      6.19920       1.5276000    0.0533000
      6.35815       1.5132999    0.0544700
      6.52547       1.4967999    0.0554000
      6.70184       1.4770000    0.0561100
      6.91104       1.4492000    0.0566600
      7.08480       1.4207001    0.0575500
      7.29318       1.3787000    0.0612300
      7.51418       1.3206999    0.0736400
      7.74900       1.2494000     0.108200
      7.99897       1.1729000     0.176000
      8.26560       1.1217000     0.284700
      8.37730       1.1145000     0.328900
      8.49205       1.1091000     0.368700
      8.61000       1.0999000     0.407700
      8.73127       1.0870000     0.452700
      8.85600       1.0754600     0.508300
      8.98435       1.0718900     0.574600
      9.11647       1.0821500     0.648200
      9.25254       1.1095999     0.722500
      9.39273       1.1531000     0.790100
      9.53723       1.2082000     0.845300
      9.66360       1.2586000     0.880200
      9.68625       1.2673000     0.885200
      9.84000       1.3222001     0.913600
      9.99871       1.3701000     0.939100
      10.1626       1.4167000     0.969200
      10.3320       1.4741000      1.00500
      10.5071       1.5499001      1.03000
      10.6883       1.6289001      1.03000
      10.8758       1.6935000      1.01600
      11.0700       1.7513000      1.00400
      11.2713       1.8098000     0.984600
      11.4800       1.8601999     0.958800
      11.6966       1.9085000     0.935300
      11.9215       1.9621999     0.901600
      12.1553       2.0050001     0.852700
      12.2756       2.0200000     0.827900
      12.3984       2.0339999     0.803900
      12.6514       2.0599999     0.750400
      12.9150       2.0720000     0.687600
      13.1898       2.0669999     0.628300
      13.4765       2.0520000     0.569100
      13.7760       2.0139999     0.511800
      14.0891       1.9547000     0.474500
      14.4167       1.8892000     0.465100
      14.7600       1.8311000     0.479000
      14.9993       1.7994000     0.494900
      15.1200       1.7849000     0.503700
      15.4980       1.7436000     0.536900
      15.8954       1.7109001     0.579600
      16.3137       1.6838000     0.629900
      16.7546       1.6690000     0.690300
      17.2200       1.6636000     0.753800
      17.7120       1.6735001     0.825900
      18.2329       1.6975000     0.895200
      18.7855       1.7414000     0.966400
      19.3725       1.7990000      1.02200
      20.0007       1.8735000      1.06500
      20.3253       1.9075999      1.07200
      20.6640       1.9362000      1.08200
      21.0142       1.9665999      1.09200
      21.3766       1.9971000      1.09900
      21.7516       2.0240002      1.10600
      22.1400       2.0539999      1.11600
      22.5425       2.0880001      1.12000
      22.9600       2.1150000      1.11900
      23.3932       2.1410000      1.12400
      23.8431       2.1710000      1.12800
      24.3106       2.1970000      1.12900
      24.7968       2.2259998      1.13500
      24.9968       2.2389998      1.13600
      27.5520       2.3710001      1.12600
      29.9986       2.4819999      1.11600
      33.5092       2.6110001      1.08500
      37.5709       2.7210000      1.05000
      41.3280       2.8230000      1.01900
      45.0851       2.9089999     0.978800
      49.9935       3.0020001     0.923000
      51.6600       3.0290000     0.903900
      53.9061       3.0620000     0.878100
      56.3564       3.0950000     0.850200
      59.0400       3.1270001     0.820400
      61.9920       3.1570001     0.788500
      63.5815       3.1719999     0.771900
      65.2547       3.1860001     0.754900
      67.0184       3.2000000     0.737500
      68.8800       3.2140000     0.719700
      70.0079       3.2210000     0.709200
      70.8480       3.2270000     0.701500
      72.9318       3.2390001     0.683000
      75.1418       3.2509999     0.664200
      77.4900       3.2630000     0.645100
      79.9897       3.2739999     0.625800
      82.6560       3.2850001     0.606300
      85.5062       3.2950001     0.586500
      88.5600       3.3050001     0.566600
      91.8400       3.3139999     0.546600
      95.3723       3.3230000     0.526400
      99.9871       3.3329999     0.502100
      103.320       3.3390000     0.485800
      112.713       3.3529999     0.445000
      118.080       3.3599999     0.424500
      123.984       3.3659999     0.404000
      135.000       3.3759999     0.370600
      149.993       3.3850000     0.333000
      174.995       3.3950000     0.284800
      200.007       3.4020000     0.248700
      225.016       3.4080000     0.220700
      240.000       3.4110000     0.206900
      247.968       3.4140000     0.199800
      250.018       3.4140000     0.197800
      259.979       3.4159999     0.187700
      274.970       3.4170001     0.173900
      299.986       3.4159999     0.155100
      348.858       3.4130001     0.128900
      398.662       3.4100001     0.111100
      448.567       3.4070001    0.0986000
      499.935       3.4050000    0.0892200
      548.117       3.4040000    0.0825500
      598.090       3.4030001    0.0771400
      619.920       3.4030001    0.0751400
      637.778       3.4030001    0.0736400
      657.740       3.4030001    0.0721000
      677.879       3.4030001    0.0706500
      700.079       3.4030001    0.0691800
      750.054       3.4030001    0.0662800
      797.325       3.4030001    0.0638800
      899.739       3.4040000    0.0594000
      999.871       3.4059999    0.0557300
      1200.23       3.4080000    0.0499000
      1239.84       3.4089999    0.0489300
      1499.93       3.4119999    0.0436100
      2000.06       3.4159999    0.0366500
      2479.68       3.4180000    0.0321900
      2999.85       3.4210000    0.0287000
      3999.48       3.4240000    0.0241300
      4999.35       3.4260001    0.0210900
      6199.20       3.4280000    0.0185300
      7000.79       3.4289999    0.0172200
      8997.39       3.4310000    0.0148000
      9998.71       3.4319999    0.0138400
      11001.2       3.4319999    0.0126200
      12398.4       3.4330001    0.0112000
      14999.3       3.4340000   0.00925400
      20000.6       3.4340000   0.00693900
      24796.8       3.4340000   0.00559600
      29998.6       3.4349999   0.00462600
      49993.6       3.4349999   0.00277500
      61992.0       3.4349999   0.00223900
      70007.9       3.4349999   0.00198200
      99987.1       3.4349999   0.00138800
      123984.       1.0011190      0.00000
