Pyroxene Minerals (crystalline) (Jäger et al. 1998) :Enstatite (normal to c-axis), s1from: http://www.astro.uni-jena.de/Laboratory/Database/data/silicate/ens_s1.lnk808 linesmicrons    n               k

Wavelength [microns]  Re(m)       Im(m)
      2.00000       1.5784700    0.0135850
      2.50000       1.5696300    0.0153300
      3.00000       1.5552500    0.0166100
      3.50000       1.5492200    0.0174900
      4.00000       1.5410200    0.0182330
      4.50000       1.5231200    0.0188630
      5.00000       1.5045300    0.0209100
      5.50000       1.4803600    0.0242680
      6.00000       1.4488699    0.0289560
      6.20000       1.4338400    0.0307710
      6.40000       1.4236900    0.0315270
      6.60000       1.4049700    0.0328130
      6.80000       1.3834900    0.0340210
      7.00000       1.3602500    0.0350100
      7.10000       1.3431600    0.0359760
      7.20000       1.3319401    0.0364410
      7.30000       1.3103700    0.0373760
      7.40000       1.2964100    0.0385040
      7.50000       1.2754800    0.0405300
      7.60000       1.2529401    0.0425180
      7.70000       1.2301500    0.0450750
      7.80000       1.2124900    0.0474100
      7.90000       1.1815400    0.0488700
      8.00117       1.1521900    0.0501220
      8.01056       1.1404001    0.0512700
      8.01998       1.1353400    0.0514840
      8.02941       1.1325400    0.0609280
      8.03887       1.1342700    0.0494510
      8.04835       1.1197300    0.0606490
      8.05785       1.1344500    0.0527510
      8.06738       1.1074400    0.0489370
      8.07692       1.1136100    0.0650340
      8.08649       1.1062100    0.0536440
      8.09609       1.1008101    0.0690260
      8.10570       1.1088400    0.0595510
      8.11534       1.0901901    0.0610810
      8.12500       1.0980600    0.0724590
      8.13468       1.0905200    0.0590350
      8.14439       1.0843600    0.0752380
      8.15412       1.0935400    0.0631420
      8.16388       1.0778000    0.0648200
      8.17365       1.0780100    0.0649800
      8.18345       1.0712800    0.0695390
      8.19328       1.0726500    0.0622720
      8.20313       1.0626400    0.0683210
      8.21300       1.0650700    0.0502830
      8.22289       1.0290000    0.0581690
      8.23281       1.0463099    0.0883870
      8.24275       1.0403200    0.0615810
      8.25272       1.0253201    0.0768180
      8.26271       1.0264900    0.0847390
      8.27273       1.0500100    0.0857290
      8.28277       1.0273499    0.0492460
      8.29283      0.99313301    0.0674280
      8.30292       1.0080400    0.0892390
      8.31303       1.0072900    0.0772630
      8.32317      0.99732101    0.0768400
      8.33333      0.99589002    0.0821480
      8.34352      0.99256998    0.0685710
      8.35373      0.96960700    0.0693700
      8.36397      0.96381998    0.0806490
      8.37423      0.95664197    0.0857980
      8.38452      0.96129900    0.0902790
      8.39483      0.95619202    0.0796440
      8.40517      0.94062400    0.0756110
      8.41554      0.92382801    0.0828640
      8.42593      0.91832000    0.0929930
      8.43634      0.91869998     0.100419
      8.44678      0.91981000    0.0902320
      8.45725      0.90099001    0.0898100
      8.46774      0.90051001    0.0926100
      8.47826      0.88664103    0.0864710
      8.48881      0.87669098    0.0854110
      8.49938      0.85306001    0.0876030
      8.50998      0.85208499     0.101267
      8.52060      0.84198898    0.0937100
      8.53125      0.83137000    0.0957000
      8.54193      0.81118798    0.0937920
      8.55263      0.80361098     0.104238
      8.56336      0.78717297    0.0979310
      8.57412      0.77370000     0.108930
      8.58491      0.75942397     0.105594
      8.59572      0.74524701     0.114429
      8.60656      0.72996598     0.111132
      8.61742      0.71312600     0.118257
      8.62832      0.69445699     0.115701
      8.63924      0.67327100     0.123750
      8.65019      0.65266001     0.126570
      8.66117      0.63417399     0.132960
      8.67217      0.60539800     0.132630
      8.68321      0.58061999     0.145521
      8.69427      0.54884499     0.149154
      8.70536      0.52124202     0.167721
      8.71647      0.48693401     0.173757
      8.72762      0.45221299     0.198188
      8.73880      0.41299701     0.214203
      8.75000      0.37552899     0.251761
      8.76123      0.33870700     0.282584
      8.77249      0.30862901     0.334294
      8.78378      0.28383800     0.375826
      8.79510      0.26826400     0.432735
      8.80645      0.25584200     0.473734
      8.81783      0.24987000     0.528191
      8.82924      0.24360999     0.565464
      8.84067      0.24264000     0.617753
      8.85214      0.24015000     0.651579
      8.86364      0.24108000     0.702609
      8.87516      0.24171001     0.735471
      8.88672      0.24502000     0.784835
      8.89830      0.24669901     0.817147
      8.90992      0.25237900     0.866694
      8.92157      0.25543100     0.898187
      8.93325      0.26293099     0.948491
      8.94495      0.26719901     0.979569
      8.95669      0.27569801      1.03202
      8.96846      0.28305799      1.06449
      8.98026      0.29406700      1.11721
      8.99210      0.30229500      1.15039
      9.00396      0.31409201      1.20612
      9.01585      0.32608801      1.24472
      9.02778      0.34608200      1.30007
      9.03974      0.35618901      1.33731
      9.05172      0.37971300      1.40027
      9.06374      0.39491400      1.43879
      9.07580      0.42271501      1.50762
      9.08788      0.44531500      1.55002
      9.10000      0.48157001      1.62263
      9.11215      0.51100200      1.66772
      9.12433      0.55742401      1.74698
      9.13655      0.59994000      1.79675
      9.14879      0.66439098      1.87872
      9.16107      0.72191101      1.92899
      9.17339      0.81134802      2.01313
      9.18573      0.89456397      2.05720
      9.19811       1.0187300      2.12732
      9.21053       1.1281400      2.14447
      9.22297       1.2795800      2.17882
      9.23545       1.4047700      2.14857
      9.24797       1.5506901      2.11408
      9.26052       1.6312900      2.04385
      9.27310       1.7366600      1.98623
      9.28571       1.7704600      1.91792
      9.29836       1.8470700      1.88405
      9.31105       1.8802201      1.84253
      9.32377       1.9717300      1.82673
      9.33653       2.0437300      1.78701
      9.34932       2.1702800      1.72922
      9.36214       2.2498500      1.63283
      9.37500       2.3497100      1.50234
      9.38790       2.3636000      1.36028
      9.40083       2.3810899      1.22511
      9.41379       2.3443401      1.10998
      9.42680       2.3164001      1.00599
      9.43983       2.2655399     0.930801
      9.45291       2.2244501     0.848254
      9.46602       2.1629000     0.803197
      9.47917       2.1255400     0.745262
      9.49235       2.0629001     0.713231
      9.50557       2.0279000     0.677833
      9.51883       1.9761600     0.650377
      9.53212       1.9350300     0.619367
      9.54545       1.8804899     0.602206
      9.55882       1.8349400     0.584305
      9.57223       1.7858200     0.582410
      9.58567       1.7480500     0.566416
      9.59916       1.6908500     0.565200
      9.61268       1.6491200     0.563871
      9.62623       1.5922900     0.566859
      9.63983       1.5393600     0.574630
      9.65347       1.4732000     0.594792
      9.66714       1.4152700     0.627044
      9.68085       1.3500600     0.669577
      9.69460       1.2893000     0.728450
      9.70839       1.2241100     0.808894
      9.72222       1.1769500     0.920101
      9.73609       1.1496800      1.05868
      9.75000       1.1773700      1.22068
      9.76395       1.2476300      1.37136
      9.77794       1.3758100      1.50771
      9.79197       1.5265501      1.59286
      9.80603       1.7011900      1.64582
      9.82014       1.8722700      1.65378
      9.83429       2.0543599      1.62115
      9.84848       2.2040300      1.55177
      9.86272       2.3488901      1.44855
      9.87699       2.4466100      1.33007
      9.89130       2.5316601      1.18889
      9.90566       2.5686700      1.05882
      9.92006       2.6079199     0.913123
      9.93450       2.5942600     0.767422
      9.94898       2.5541601     0.634186
      9.96350       2.4906800     0.537693
      9.97807       2.4239299     0.452511
      9.99268       2.3486300     0.402758
      10.0073       2.2880700     0.363134
      10.0220       2.2310600     0.337335
      10.0368       2.1803801     0.315297
      10.0515       2.1412101     0.302794
      10.0664       2.1011400     0.278022
      10.0812       2.0577900     0.270290
      10.0962       2.0248499     0.259563
      10.1111       1.9905500     0.252361
      10.1261       1.9599100     0.247731
      10.1412       1.9374700     0.241709
      10.1563       1.9069700     0.230770
      10.1714       1.8828400     0.227597
      10.1866       1.8524700     0.218650
      10.2018       1.8309400     0.219960
      10.2171       1.8020900     0.207592
      10.2324       1.7745000     0.215848
      10.2478       1.7565500     0.208880
      10.2632       1.7262900     0.210831
      10.2786       1.7093101     0.215089
      10.2941       1.6908000     0.211110
      10.3097       1.6663300     0.209070
      10.3253       1.6458499     0.211509
      10.3409       1.6262900     0.209060
      10.3566       1.6021200     0.205610
      10.3723       1.5750901     0.209330
      10.3881       1.5556999     0.210150
      10.4040       1.5255800     0.212819
      10.4199       1.5085599     0.220259
      10.4358       1.4816000     0.216930
      10.4518       1.4563900     0.224449
      10.4678       1.4283299     0.226260
      10.4839       1.4020000     0.235109
      10.5000       1.3714800     0.238680
      10.5162       1.3415300     0.251041
      10.5324       1.3096700     0.259213
      10.5487       1.2789100     0.274542
      10.5650       1.2430900     0.283576
      10.5814       1.2055700     0.307354
      10.5978       1.1718100     0.321916
      10.6143       1.1243700     0.349573
      10.6308       1.0886700     0.380918
      10.6474       1.0401900     0.415223
      10.6641      0.99887598     0.465273
      10.6807      0.95733303     0.518616
      10.6975      0.92236501     0.584531
      10.7143      0.88985699     0.658731
      10.7311      0.87605202     0.745227
      10.7480      0.86727101     0.829334
      10.7650      0.87778699     0.926127
      10.7820      0.89963901      1.01442
      10.7991      0.94120800      1.10676
      10.8162      0.99025601      1.18817
      10.8333       1.0698900      1.27188
      10.8506       1.1632700      1.32275
      10.8678       1.2763799      1.34852
      10.8852       1.3750100      1.32510
      10.9026       1.4538600      1.26339
      10.9200       1.4605300      1.18315
      10.9375       1.4270500      1.12587
      10.9551       1.3403200      1.10927
      10.9727       1.2566400      1.15997
      10.9903       1.1856300      1.25711
      11.0081       1.1641400      1.39695
      11.0259       1.1777300      1.54134
      11.0437       1.2418700      1.70015
      11.0616       1.3389200      1.84034
      11.0795       1.4874600      1.97248
      11.0976       1.6515000      2.06351
      11.1156       1.8582500      2.13159
      11.1338       2.0563300      2.15154
      11.1520       2.2948899      2.13504
      11.1702       2.4860301      2.06193
      11.1885       2.7035501      1.96215
      11.2069       2.8531401      1.80647
      11.2253       2.9966199      1.64055
      11.2438       3.0759599      1.44732
      11.2624       3.1191299      1.25401
      11.2810       3.1234400      1.09361
      11.2997       3.1122200     0.911852
      11.3184       3.0474100     0.791288
      11.3372       3.0130401     0.674157
      11.3561       2.9430001     0.576448
      11.3750       2.8792701     0.500992
      11.3940       2.8247700     0.447249
      11.4130       2.7631500     0.383111
      11.4322       2.7082000     0.363021
      11.4513       2.6724300     0.314296
      11.4706       2.6194401     0.291257
      11.4899       2.5844700     0.257259
      11.5093       2.5370700     0.239065
      11.5287       2.5016301     0.217129
      11.5482       2.4628999     0.210161
      11.5678       2.4401400     0.196688
      11.5874       2.4149599     0.182527
      11.6071       2.3882799     0.163873
      11.6269       2.3629701     0.148547
      11.6468       2.3220601     0.132961
      11.6667       2.2999401     0.143478
      11.6866       2.2825000     0.130302
      11.7067       2.2675900     0.130249
      11.7268       2.2475300     0.109724
      11.7470       2.2279601     0.112028
      11.7672       2.2091801    0.0929020
      11.7876       2.1886401    0.0988450
      11.8080       2.1763999    0.0779400
      11.8284       2.1459100    0.0789100
      11.8490       2.1287899    0.0745210
      11.8696       2.1142099    0.0851460
      11.8902       2.1125600    0.0659240
      11.9110       2.0779800    0.0610720
      11.9318       2.0657799    0.0686600
      11.9527       2.0556901    0.0676200
      11.9737       2.0443299    0.0633810
      11.9947       2.0351300    0.0582090
      12.0158       2.0114501    0.0475820
      12.0370       1.9957900    0.0607790
      12.0583       1.9888700    0.0559510
      12.0796       1.9796900    0.0599580
      12.1011       1.9687901    0.0465530
      12.1226       1.9497100    0.0543490
      12.1441       1.9431900    0.0491610
      12.1658       1.9260499    0.0549400
      12.1875       1.9212199    0.0555500
      12.2093       1.9154201    0.0576100
      12.2312       1.9056100    0.0435620
      12.2531       1.8825001    0.0518790
      12.2752       1.8778700    0.0582000
      12.2973       1.8766600    0.0671280
      12.3195       1.8809900    0.0509430
      12.3418       1.8584800    0.0461800
      12.3641       1.8489500    0.0479800
      12.3866       1.8390800    0.0536600
      12.4091       1.8366400    0.0484900
      12.4317       1.8237799    0.0493800
      12.4544       1.8165200    0.0442800
      12.4771       1.8023100    0.0529990
      12.5000       1.8077800    0.0463500
      12.5229       1.7836300    0.0400220
      12.5460       1.7765501    0.0517800
      12.5691       1.7733400    0.0513000
      12.5922       1.7664900    0.0468200
      12.6155       1.7525001    0.0475910
      12.6389       1.7456599    0.0524700
      12.6623       1.7436000    0.0530690
      12.6859       1.7330000    0.0425920
      12.7095       1.7134700    0.0520410
      12.7332       1.7160200    0.0600100
      12.7570       1.7139200    0.0528300
      12.7809       1.6962301    0.0473910
      12.8049       1.6889900    0.0644790
      12.8289       1.6985300    0.0536590
      12.8531       1.6803600    0.0443300
      12.8774       1.6667300    0.0401700
      12.9017       1.6463000    0.0474890
      12.9261       1.6414599    0.0510410
      12.9507       1.6260999    0.0567290
      12.9753       1.6251800    0.0595800
      13.0000       1.6084000    0.0587100
      13.0248       1.6012700    0.0678800
      13.0497       1.5957299    0.0709500
      13.0747       1.5915999    0.0662710
      13.0998       1.5727800    0.0637300
      13.1250       1.5584600    0.0671700
      13.1503       1.5404100    0.0766300
      13.1757       1.5373100    0.0833590
      13.2012       1.5208600    0.0805100
      13.2267       1.5029200    0.0875190
      13.2524       1.4882801    0.0957100
      13.2782       1.4674500    0.0911400
      13.3041       1.4212400     0.114077
      13.3301       1.4119600     0.154832
      13.3562       1.3921100     0.174497
      13.3823       1.3733600     0.233334
      13.4086       1.4026700     0.293500
      13.4350       1.4556000     0.317430
      13.4615       1.4989901     0.309228
      13.4881       1.5317301     0.270163
      13.5148       1.4973500     0.226422
      13.5417       1.4713000     0.236278
      13.5686       1.4449800     0.220721
      13.5956       1.3909301     0.239763
      13.6228       1.3518699     0.275944
      13.6500       1.3097700     0.332069
      13.6774       1.2849500     0.412688
      13.7048       1.2784400     0.517255
      13.7324       1.3193500     0.650490
      13.7601       1.4419301     0.778287
      13.7879       1.6297700     0.821209
      13.8158       1.8078800     0.784879
      13.8438       1.9509100     0.658737
      13.8720       1.9974999     0.522283
      13.9002       2.0037899     0.399754
      13.9286       1.9748900     0.312784
      13.9571       1.9428600     0.240372
      13.9857       1.8934600     0.192567
      14.0144       1.8546799     0.169353
      14.0432       1.8305399     0.142340
      14.0722       1.7824600     0.118632
      14.1012       1.7552600     0.128620
      14.1304       1.7399200     0.116142
      14.1597       1.7204900     0.115040
      14.1892       1.7054800    0.0980700
      14.2188       1.6733299    0.0965300
      14.2484       1.6570801     0.102069
      14.2782       1.6439800     0.105390
      14.3082       1.6347800     0.103109
      14.3382       1.6187800    0.0994710
      14.3684       1.6023700     0.103030
      14.3987       1.5951999     0.104190
      14.4292       1.5746900    0.0982020
      14.4598       1.5552200     0.113461
      14.4904       1.5510499     0.123811
      14.5213       1.5470901     0.130120
      14.5522       1.5429500     0.129960
      14.5833       1.5311000     0.130930
      14.6146       1.5170300     0.141610
      14.6459       1.5182000     0.159278
      14.6774       1.5267500     0.161320
      14.7091       1.5267100     0.155450
      14.7408       1.5147901     0.157400
      14.7727       1.5201100     0.167429
      14.8048       1.5178100     0.160360
      14.8370       1.5177000     0.169419
      14.8693       1.5227100     0.164320
      14.9017       1.5295399     0.162738
      14.9344       1.5253100     0.143683
      14.9671       1.5267500     0.148469
      15.0000       1.5273600     0.103700
      15.0330       1.4679101     0.104691
      15.0662       1.4653300     0.144299
      15.0996       1.4874500     0.138729
      15.1330       1.4718100     0.119581
      15.1667       1.4606600     0.130759
      15.2004       1.4613900     0.120851
      15.2344       1.4423200     0.122030
      15.2685       1.4407099     0.129370
      15.3027       1.4429300     0.126130
      15.3371       1.4342099     0.111520
      15.3716       1.4182500     0.114030
      15.4063       1.4136100     0.108650
      15.4412       1.3948100     0.104751
      15.4762       1.3780400     0.111690
      15.5114       1.3756300     0.122909
      15.5467       1.3673300     0.113372
      15.5822       1.3515800     0.133149
      15.6179       1.3735000     0.130280
      15.6537       1.3538800     0.109020
      15.6897       1.3390400     0.114000
      15.7258       1.3246100     0.114381
      15.7621       1.3191000     0.126199
      15.7986       1.3239501     0.114410
      15.8353       1.2948600     0.102202
      15.8721       1.2755300     0.120558
      15.9091       1.2731400     0.132950
      15.9463       1.2873000     0.136260
      15.9836       1.2754300     0.102591
      16.0211       1.2446400     0.112550
      16.0588       1.2381400     0.109590
      16.0967       1.2172700     0.118970
      16.1348       1.2171700     0.109780
      16.1730       1.1774700     0.112873
      16.2114       1.1770400     0.139479
      16.2500       1.1789600     0.132090
      16.2888       1.1697900     0.116121
      16.3277       1.1258000     0.111820
      16.3669       1.1114900     0.147059
      16.4063       1.1172500     0.138330
      16.4458       1.0907300     0.143550
      16.4855       1.0874701     0.147040
      16.5254       1.0571600     0.146860
      16.5655       1.0555800     0.182267
      16.6058       1.0784900     0.149340
      16.6463       1.0326700     0.126641
      16.6870       1.0045500     0.133190
      16.7279      0.97055101     0.124240
      16.7690      0.91935301     0.142929
      16.8104      0.90311098     0.182111
      16.8519      0.90903002     0.191000
      16.8936      0.89118201     0.168782
      16.9355      0.83886403     0.168400
      16.9776      0.80485201     0.187629
      17.0200      0.76567000     0.198980
      17.0625      0.73082000     0.217330
      17.1053      0.68190402     0.230869
      17.1482      0.63345999     0.263090
      17.1914      0.57870400     0.295736
      17.2348      0.52475798     0.350303
      17.2785      0.47116101     0.415619
      17.3223      0.43617699     0.505540
      17.3664      0.41288099     0.595225
      17.4107      0.41284201     0.702631
      17.4552      0.42905900     0.801425
      17.5000      0.47190100     0.910281
      17.5450      0.53158700      1.00537
      17.5902      0.63355201      1.10835
      17.6357      0.77795398      1.17178
      17.6814      0.98103797      1.16892
      17.7273       1.1385300      1.02545
      17.7734       1.1746800     0.846700
      17.8198       1.1219500     0.704718
      17.8665       1.0205400     0.617693
      17.9134      0.90862298     0.603012
      17.9605      0.82644397     0.622053
      18.0079      0.74711603     0.664706
      18.0556      0.70101798     0.737146
      18.1035      0.67791200     0.818375
      18.1516      0.70744503     0.904715
      18.2000      0.75783098     0.956620
      18.2487      0.84459502     0.987498
      18.2976      0.93484199     0.943364
      18.3468      0.97720599     0.837860
      18.3962      0.92937499     0.733106
      18.4459      0.84736300     0.668568
      18.4959      0.73154002     0.639722
      18.5462      0.61919099     0.668655
      18.5967      0.52770001     0.722320
      18.6475      0.45773199     0.798798
      18.6986      0.41139099     0.878529
      18.7500      0.38534001     0.958249
      18.8016      0.36375201      1.02778
      18.8536      0.35486999      1.10160
      18.9058      0.34246999      1.16135
      18.9583      0.33936000      1.23654
      19.0111      0.33910000      1.29164
      19.0643      0.33898100      1.36379
      19.1176      0.34810999      1.41655
      19.1714      0.34733999      1.48137
      19.2253      0.35710001      1.54034
      19.2797      0.36541000      1.60334
      19.3343      0.37391099      1.65985
      19.3892      0.38453901      1.72696
      19.4444      0.39507899      1.78609
      19.5000      0.41194001      1.86072
      19.5559      0.43326899      1.91853
      19.6121      0.45037001      1.99100
      19.6686      0.47550100      2.05777
      19.7254      0.50701803      2.13241
      19.7826      0.54081100      2.19312
      19.8401      0.57475197      2.26106
      19.8980      0.60657102      2.32110
      19.9561      0.63801003      2.38379
      20.0147      0.64612001      2.45712
      20.0735      0.68852001      2.56233
      20.1327      0.72746801      2.64728
      20.1923      0.79188198      2.75818
      20.2522      0.84974599      2.84503
      20.3125      0.93668902      2.95952
      20.3731       1.0033900      3.04470
      20.4341       1.1166101      3.19275
      20.4955       1.2477100      3.26649
      20.5572       1.3803900      3.38524
      20.6193       1.5288600      3.45377
      20.6818       1.6820900      3.58516
      20.7447       1.9166900      3.67030
      20.8079       2.1484301      3.72734
      20.8716       2.4173100      3.76564
      20.9356       2.7109599      3.73418
      21.0000       2.9791901      3.68716
      21.0648       3.2968900      3.58452
      21.1300       3.6187699      3.44043
      21.1957       3.9500599      3.08856
      21.2617       4.0617900      2.72512
      21.3281       4.1128602      2.31450
      21.3950       3.9633000      2.02220
      21.4623       3.8292601      1.82334
      21.5300       3.6679900      1.75698
      21.5981       3.6157899      1.71844
      21.6667       3.5618999      1.73638
      21.7357       3.6801600      1.73433
      21.8051       3.7582800      1.59858
      21.8750       3.8175001      1.44778
      21.9453       3.8020699      1.25304
      22.0161       3.7345700      1.11505
      22.0874       3.6904800      1.00611
      22.1591       3.6155000     0.876633
      22.2313       3.5426400     0.814940
      22.3039       3.4876699     0.702532
      22.3771       3.3774400     0.649860
      22.4507       3.3286700     0.597009
      22.5247       3.2325499     0.541482
      22.5993       3.1653600     0.529399
      22.6744       3.1164501     0.503290
      22.7500       3.0662100     0.469410
      22.8261       3.0067699     0.443299
      22.9027       2.9586899     0.422931
      22.9798       2.9043601     0.392610
      23.0574       2.8302901     0.384260
      23.1356       2.7905900     0.410789
      23.2143       2.7887101     0.399328
      23.2935       2.7524199     0.359769
      23.3733       2.7001100     0.348610
      23.4536       2.6697700     0.338629
      23.5345       2.6214900     0.317201
      23.6159       2.5748899     0.323350
      23.6979       2.5504999     0.319349
      23.7805       2.5112000     0.300940
      23.8636       2.4638700     0.297850
      23.9474       2.4175401     0.287780
      24.0317       2.3450501     0.301110
      24.1166       2.2936900     0.342092
      24.2021       2.2463000     0.413412
      24.2883       2.2958801     0.518469
      24.3750       2.4107299     0.498140
      24.4624       2.4402599     0.405066
      24.5504       2.3987801     0.324770
      24.6390       2.3396599     0.299340
      24.7283       2.2998500     0.276630
      24.8182       2.2423899     0.260210
      24.9088       2.1935000     0.263600
      25.0000       2.1488600     0.260130
      25.0919       2.0908999     0.272670
      25.1845       2.0548301     0.302800
      25.2778       2.0349600     0.326290
      25.3717       2.0281301     0.331210
      25.4664       2.0008299     0.321920
      25.5618       1.9765100     0.315439
      25.6579       1.9273300     0.290871
      25.7547       1.8549300     0.292391
      25.8523       1.7828000     0.317570
      25.9506       1.7268000     0.352810
      26.0496       1.6569700     0.382331
      26.1494       1.5715899     0.448194
      26.2500       1.4981600     0.564861
      26.3514       1.4960400     0.744178
      26.4535       1.6386300     0.888740
      26.5564       1.8379200     0.853350
      26.6602       1.8804100     0.681296
      26.7647       1.7991000     0.581138
      26.8701       1.6829200     0.532500
      26.9763       1.5588700     0.548079
      27.0833       1.4400600     0.582249
      27.1912       1.3046700     0.666705
      27.3000       1.2007101     0.800109
      27.4096       1.1232200     0.963123
      27.5202       1.0974500      1.15502
      27.6316       1.1156800      1.33998
      27.7439       1.1777200      1.51506
      27.8571       1.2522900      1.65834
      27.9713       1.3375900      1.79854
      28.0864       1.4262300      1.93800
      28.2025       1.5498300      2.08173
      28.3195       1.6777200      2.22836
      28.4375       1.8827800      2.38204
      28.5565       2.1013401      2.50186
      28.6765       2.4265001      2.62354
      28.7975       2.8282001      2.62878
      28.9195       3.2746899      2.43593
      29.0425       3.5508599      2.10663
      29.1667       3.7092500      1.69176
      29.2918       3.6524701      1.36874
      29.4181       3.6069901      1.10623
      29.5455       3.4759800     0.903926
      29.6739       3.3553700     0.756443
      29.8035       3.2086799     0.678942
      29.9342       3.1082101     0.653220
      30.0661       3.0585699     0.661630
      30.1991       3.0725200     0.617397
      30.3333       3.0522101     0.525963
      30.4688       2.9787700     0.432250
      30.6054       2.8995399     0.401110
      30.7432       2.8387499     0.354981
      30.8824       2.7721701     0.345340
      31.0227       2.7342300     0.305489
      31.1644       2.6551001     0.283381
      31.3073       2.6050999     0.282360
      31.4516       2.5681100     0.270050
      31.5972       2.5136600     0.233870
      31.7442       2.4389501     0.237830
      31.8925       2.3980899     0.239470
      32.0423       2.3411400     0.234850
      32.1934       2.2896099     0.240990
      32.3460       2.2389300     0.243840
      32.5000       2.1786799     0.255340
      32.6555       2.1422200     0.274790
      32.8125       2.0813401     0.259620
      32.9710       1.9994600     0.296741
      33.1311       1.9465801     0.325671
      33.2927       1.8661500     0.369709
      33.4559       1.7980000     0.432419
      33.6207       1.7080600     0.533559
      33.7871       1.6759599     0.717942
      33.9552       1.7737100     0.912245
      34.1250       2.0059400     0.989899
      34.2965       2.1913700     0.856391
      34.4697       2.2175901     0.667838
      34.6447       2.1213500     0.523571
      34.8214       1.9853700     0.457900
      35.0000       1.8333000     0.441800
      35.1804       1.6720099     0.467400
      35.3627       1.4864100     0.549314
      35.5469       1.3156199     0.721178
      35.7330       1.2062300     0.963946
      35.9211       1.1785001      1.25102
      36.1111       1.2581100      1.53880
      36.3032       1.3940001      1.77497
      36.4973       1.5656300      2.01068
      36.6936       1.8228000      2.24115
      36.8919       2.1997001      2.41705
      37.0924       2.6990700      2.46275
      37.2951       3.2542200      2.19294
      37.5000       3.5036700      1.70624
      37.7072       3.5376599      1.24852
      37.9167       3.3885701     0.920936
      38.1285       3.2438700     0.698772
      38.3427       3.0469100     0.568889
      38.5593       2.9319301     0.497380
      38.7784       2.7909000     0.423520
      39.0000       2.6943400     0.374410
      39.2241       2.5379701     0.307800
      39.4509       2.4061100     0.318910
      39.6802       2.2815700     0.304970
      39.9123       2.1508400     0.316120
      40.1471       1.9844600     0.320950
      40.3846       1.7907100     0.407918
      40.6250       1.6164500     0.548099
      40.8683       1.4535000     0.782796
      41.1145       1.4262600      1.14374
      41.3636       1.6505800      1.45398
      41.6158       2.0093501      1.55168
      41.8712       2.3282399      1.29210
      42.1296       2.2362900     0.942089
      42.3913       1.9635201     0.766910
      42.6563       1.5798100     0.786661
      42.9245       1.2267700      1.03185
      43.1962       1.0018100      1.45215
      43.4713      0.97743201      1.94099
      43.7500       1.0981100      2.38390
      44.0323       1.2913400      2.83794
      44.3182       1.6905500      3.24188
      44.6078       2.0902300      3.57889
      44.9013       2.8570800      3.89455
      45.1987       3.6716299      3.74220
      45.5000       4.3876200      3.14717
      45.8054       4.3991399      2.60524
      46.1149       4.6670699      2.33822
      46.4286       4.7428098      1.80916
      46.7466       4.6971202      1.40594
      47.0690       4.4772000      1.07017
      47.3958       4.3040600     0.965231
      47.7273       4.2603002     0.820072
      48.0634       4.0889502     0.621440
      48.4043       3.9228699     0.614119
      48.7500       3.8629799     0.546480
      49.1007       3.7199600     0.520970
      49.4565       3.6833701     0.562930
      49.8175       3.6979699     0.499380
      50.1838       3.5840399     0.423851
      50.5555       3.5355401     0.475329
      50.9328       3.5195999     0.417740
      51.3158       3.4554100     0.442050
      51.7045       3.4656799     0.413000
      52.0992       3.4146299     0.410300
      52.5000       3.4314401     0.386750
      52.9070       3.3795199     0.342870
      53.3203       3.3337600     0.347850
      53.7402       3.3362999     0.368140
      54.1667       3.3301799     0.307820
      54.6000       3.2762201     0.336000
      55.0403       3.3336899     0.297320
      55.4878       3.2366300     0.227010
      55.9426       3.1930699     0.284370
      56.4050       3.2047400     0.284320
      56.8750       3.1964700     0.270910
      57.3529       3.1698101     0.241880
      57.8390       3.1170499     0.276010
      58.3333       3.1801801     0.297560
      58.8362       3.1411800     0.214940
      59.3478       3.1164100     0.270369
      59.8684       3.1290801     0.204490
      60.3982       3.0478799     0.245130
      60.9375       3.1031599     0.271500
      61.4865       3.1008899     0.229740
      62.0454       3.0703800     0.207220
      62.6147       3.0473199     0.235220
      63.1944       3.0560300     0.216450
      63.7850       3.0291901     0.243440
      64.3868       3.0662501     0.228920
      65.0000       3.0472100     0.229050
      65.6250       3.0835199     0.180980
      66.2621       2.9895401     0.168420
      66.9118       3.0346799     0.228960
      67.5743       3.0418999     0.146420
      68.2500       2.9733400     0.156410
      68.9394       2.9873400     0.193080
      69.6429       2.9953201     0.155230
      70.3608       2.9558201     0.175970
      71.0938       2.9970801     0.171860
      71.8421       2.9516599     0.137130
      72.6064       2.9425700     0.178430
      73.3871       2.9676700     0.172860
      74.1848       2.9651599     0.146890
      75.0000       2.9433501     0.148870
      75.8333       2.9590199     0.149290
      76.6854       2.9536099     0.117510
      77.5568       2.9168601     0.104840
      78.4483       2.9054599     0.129610
      79.3605       2.8978801     0.112870
      80.2941       2.8861599     0.157120
      81.2500       2.9284799     0.109390
      82.2289       2.8482299     0.133000
      83.2317       2.9508200     0.158550
      84.2593       2.8761101    0.0331000
      85.3125       2.7936900     0.144850
      86.3924       2.8947699     0.193550
      87.5000       2.9129300     0.102060
      88.6364       2.8507800     0.123760
      89.8026       2.9008999     0.123100
      91.0000       2.8463099     0.100360
      92.2297       2.8870399     0.132580
      93.4931       2.8510201    0.0841100
      94.7917       2.8821900     0.124360
      96.1268       2.8215599    0.0278700
      97.5000       2.7665401     0.189700
      98.9130       2.9569499     0.147030
