Wavelength [microns]  Transmission [unitless]
      49.9600                0.00000
      50.0215                0.00000
      50.1075            9.93365e-06
      50.2087            0.000218963
      50.3162            0.000461520
      50.4206            0.000733138
      50.5157             0.00102993
      50.6095             0.00135333
      50.7036             0.00170658
      50.7982             0.00209276
      50.8930             0.00251495
      50.9883             0.00297616
      51.0838             0.00346997
      51.1798             0.00399527
      51.2761             0.00455866
      51.3727             0.00516675
      51.4698             0.00582616
      51.5672             0.00653028
      51.6649             0.00724945
      51.7631             0.00801106
      51.8616             0.00884738
      51.9605             0.00979070
      52.0597              0.0108734
      52.1594              0.0121138
      52.2594              0.0134845
      52.3598              0.0149490
      52.4606              0.0164707
      52.5618              0.0180132
      52.6634              0.0195404
      52.7653              0.0210583
      52.8677              0.0226127
      52.9705              0.0242503
      53.0736              0.0260177
      53.1772              0.0279537
      53.2812              0.0299635
      53.3856              0.0320599
      53.4903              0.0343144
      53.5955              0.0367982
      53.7012              0.0395824
      53.8072              0.0426723
      53.9137              0.0459888
      54.0205              0.0495605
      54.1278              0.0534190
      54.2355              0.0575958
      54.3437              0.0621175
      54.4523              0.0669521
      54.5613              0.0720949
      54.6708              0.0775557
      54.7807              0.0833438
      54.8910              0.0894689
      55.0018              0.0962255
      55.1131               0.103735
      55.2247               0.111531
      55.3369               0.119147
      55.4495               0.126112
      55.5625               0.132029
      55.6761               0.137149
      55.7900               0.141692
      55.9045               0.145809
      56.0194               0.149650
      56.1348               0.153363
      56.2507               0.156448
      56.3670               0.158743
      56.4839               0.160908
      56.6012               0.163606
      56.7190               0.167498
      56.8373               0.173159
      56.9561               0.180376
      57.0754               0.188670
      57.1952               0.197586
      57.3155               0.206666
      57.4363               0.215462
      57.5576               0.224424
      57.6794               0.233790
      57.8018               0.243175
      57.9246               0.252191
      58.0480               0.260453
      58.1719               0.267565
      58.2964               0.273514
      58.4213               0.278792
      58.5469               0.283909
      58.6729               0.289379
      58.7995               0.295687
      58.9267               0.302214
      59.0544               0.308822
      59.1826               0.315938
      59.3114               0.323989
      59.4408               0.333400
      59.5707               0.344595
      59.7012               0.357510
      59.8323               0.371602
      59.9640               0.386320
      60.0962               0.401112
      60.2290               0.415481
      60.3625               0.430010
      60.4965               0.444808
      60.6310               0.459609
      60.7662               0.474145
      60.9021               0.488152
      61.0385               0.501315
      61.1755               0.513674
      61.3131               0.525672
      61.4514               0.537760
      61.5903               0.550388
      61.7298               0.563948
      61.8700               0.578100
      62.0107               0.592704
      62.1522               0.607774
      62.2942               0.623322
      62.4370               0.639362
      62.5804               0.656364
      62.7244               0.674526
      62.8691               0.693100
      63.0145               0.711338
      63.1605               0.728488
      63.3073               0.743996
      63.4547               0.758703
      63.6028               0.772618
      63.7516               0.785491
      63.9011               0.797074
      64.0513               0.807117
      64.2022               0.815205
      64.3538               0.821478
      64.5061               0.826521
      64.6592               0.830920
      64.8130               0.835260
      64.9675               0.839913
      65.1227               0.844226
      65.2787               0.848224
      65.4355               0.852064
      65.5930               0.855906
      65.7512               0.859903
      65.9103               0.863746
      66.0701               0.867374
      66.2306               0.871103
      66.3920               0.875251
      66.5541               0.880134
      66.7171               0.886005
      66.8809               0.892721
      67.0454               0.900066
      67.2107               0.907832
      67.3769               0.915811
      67.5439               0.923820
      67.7118               0.932521
      67.8804               0.941835
      68.0499               0.951133
      68.2203               0.959790
      68.3915               0.967181
      68.5636               0.972868
      68.7365               0.977222
      68.9103               0.980618
      69.0850               0.983415
      69.2606               0.985975
      69.4371               0.988635
      69.6145               0.991229
      69.7928               0.993581
      69.9720               0.995639
      70.1521               0.997347
      70.3332               0.998653
      70.5152               0.999510
      70.6981               0.999939
      70.8820                1.00000
      71.0668               0.999752
      71.2526               0.999253
      71.4395               0.998564
      71.6272               0.997711
      71.8160               0.996631
      72.0057               0.995249
      72.1965               0.993490
      72.3883               0.991279
      72.5811               0.988636
      72.7749               0.985638
      72.9698               0.982238
      73.1657               0.978389
      73.3627               0.974047
      73.5607               0.969195
      73.7598               0.963993
      73.9600               0.958358
      74.1613               0.952156
      74.3636               0.945254
      74.5671               0.937517
      74.7718               0.929288
      74.9775               0.920698
      75.1843               0.911303
      75.3923               0.900656
      75.6015               0.888310
      75.8118               0.873793
      76.0233               0.856961
      76.2360               0.838414
      76.4498               0.818808
      76.6649               0.798801
      76.8812               0.779042
      77.0988               0.759198
      77.3175               0.738879
      77.5375               0.718269
      77.7587               0.697548
      77.9812               0.676900
      78.2051               0.656370
      78.4301               0.635647
      78.6565               0.614880
      78.8842               0.594259
      79.1132               0.573979
      79.3436               0.554220
      79.5753               0.534661
      79.8083               0.515280
      80.0427               0.496332
      80.2785               0.478073
      80.5157               0.460758
      80.7543               0.444638
      80.9943               0.429675
      81.2357               0.415545
      81.4786               0.401922
      81.7230               0.388477
      81.9688               0.374895
      82.2161               0.361226
      82.4649               0.347677
      82.7152               0.334409
      82.9670               0.321580
      83.2204               0.309349
      83.4754               0.297842
      83.7318               0.286982
      83.9899               0.276619
      84.2495               0.266603
      84.5108               0.256782
      84.7738               0.247023
      85.0383               0.237397
      85.3045               0.227976
      85.5723               0.218801
      85.8419               0.209911
      86.1132               0.201347
      86.3862               0.193076
      86.6609               0.185050
      86.9373               0.177326
      87.2155               0.169961
      87.4956               0.163015
      87.7775               0.156553
      88.0611               0.150625
      88.3466               0.145140
      88.6339               0.139987
      88.9231               0.135056
      89.2143               0.130234
      89.5073               0.125536
      89.8023               0.121044
      90.0991               0.116751
      90.3980               0.112652
      90.6989               0.108741
      91.0018               0.105020
      91.3068               0.101524
      91.6137              0.0982273
      91.9227              0.0950951
      92.2338              0.0920941
      92.5471              0.0891914
      92.8625              0.0864655
      93.1800              0.0839273
      93.4996              0.0814948
      93.8215              0.0790861
      94.1457              0.0766190
      94.4721              0.0740119
      94.8008              0.0712673
      95.1317              0.0684829
      95.4649              0.0657609
      95.8005              0.0632032
      96.1385              0.0609114
      96.4790              0.0589249
      96.8217              0.0571627
      97.1669              0.0555306
      97.5145              0.0539341
      97.8648              0.0522790
      98.2176              0.0505041
      98.5729              0.0486716
      98.9307              0.0468280
      99.2911              0.0450167
      99.6542              0.0432811
      100.020              0.0416570
      100.389              0.0400512
      100.760              0.0384780
      101.134              0.0370093
      101.510              0.0357166
      101.890              0.0346718
      102.272              0.0339608
      102.658              0.0335751
      103.046              0.0333915
      103.437              0.0332853
      103.831              0.0331315
      104.228              0.0328145
      104.628              0.0323676
      105.032              0.0318678
      105.438              0.0313769
      105.847              0.0309567
      106.260              0.0306689
      106.704              0.0305550
      107.191              0.0305776
      107.678              0.0306829
      108.119              0.0308171
      108.471              0.0309263
      108.609              0.0309561
      108.609              0.0309561
      108.609              0.0309561
      108.609              0.0309561
      108.609              0.0309561
