Wavelength [microns]  Transmission [unitless]
      5.61200            0.000823465
      5.62728            0.000494307
      5.64386            0.000310616
      5.65924            0.000330068
      5.67536            0.000379873
      5.69112            0.000375002
      5.70646            0.000345804
      5.72180            0.000517321
      5.73761            0.000543527
      5.75370            0.000413571
      5.76906            0.000263853
      5.78485            0.000288903
      5.80094            0.000442399
      5.81629            0.000486224
      5.83209            0.000468064
      5.84817            0.000470934
      5.86352            0.000755846
      5.87933            0.000780887
      5.89541            0.000612485
      5.91082            0.000560843
      5.92615            0.000701443
      5.94165            0.000902236
      5.95781            0.000859570
      5.97345            0.000512710
      5.98889            0.000165957
      6.00505            0.000471990
      6.02068             0.00100517
      6.03613             0.00136406
      6.05229            0.000763887
      6.06796            0.000616346
      6.08330            0.000838069
      6.09864             0.00116915
      6.11455             0.00102965
      6.13057            0.000676253
      6.14589            0.000572581
      6.16179            0.000572868
      6.17780            0.000653691
      6.19312            0.000806534
      6.20903            0.000704623
      6.22503            0.000575059
      6.24035            0.000748624
      6.25627            0.000952364
      6.27227             0.00122986
      6.28764             0.00164888
      6.30298             0.00186816
      6.31856             0.00253869
      6.33473             0.00410395
      6.35027              0.0117140
      6.36579              0.0361655
      6.38197              0.0891997
      6.39750               0.167190
      6.41303               0.259954
      6.42921               0.357339
      6.44473               0.462289
      6.46027               0.545117
      6.47644               0.577909
      6.49202               0.611178
      6.50736               0.645982
      6.52273               0.684680
      6.53873               0.713242
      6.55465               0.730773
      6.56997               0.736269
      6.58597               0.743219
      6.60188               0.747183
      6.61720               0.745557
      6.63321               0.742209
      6.64913               0.738244
      6.66447               0.733952
      6.67981               0.711787
      6.69547               0.696318
      6.71164               0.702525
      6.72709               0.730114
      6.74271               0.752954
      6.75887               0.756817
      6.77432               0.761646
      6.78995               0.770743
      6.80611               0.785928
      6.82155               0.797150
      6.83719               0.803602
      6.85335               0.804861
      6.86885               0.805697
      6.88418               0.806245
      6.89959               0.806351
      6.91567               0.801610
      6.93148               0.796372
      6.94683               0.793378
      6.96291               0.801426
      6.97871               0.806542
      6.99406               0.802971
      7.01015               0.785552
      7.02594               0.772620
      7.04130               0.770497
      7.05739               0.779450
      7.07320               0.782935
      7.08854               0.777493
      7.10388               0.772600
      7.11964               0.776171
      7.13577               0.788236
      7.15114               0.798309
      7.16688               0.795632
      7.18300               0.781590
      7.19837               0.774301
      7.21412               0.777029
      7.23024               0.789760
      7.24567               0.808861
      7.26101               0.822181
      7.27647               0.826754
      7.29260               0.821883
      7.30831               0.815410
      7.32371               0.810251
      7.33984               0.809708
      7.35554               0.814754
      7.37094               0.823987
      7.38708               0.833452
      7.40277               0.840291
      7.41818               0.842506
      7.43432               0.836202
      7.45004               0.825233
      7.46538               0.814579
      7.48072               0.813176
      7.49658               0.829111
      7.51264               0.856432
      7.52797               0.881112
      7.54382               0.896775
      7.55987               0.905101
      7.57520               0.910847
      7.59106               0.918347
      7.60710               0.924258
      7.62243               0.921581
      7.63830               0.911551
      7.65434               0.900084
      7.66973               0.896460
      7.68507               0.905548
      7.70060               0.920685
      7.71677               0.931681
      7.73236               0.930930
      7.74784               0.922944
      7.76401               0.914319
      7.77959               0.911515
      7.79508               0.913449
      7.81125               0.918695
      7.82688               0.920426
      7.84221               0.922028
      7.85757               0.927785
      7.87352               0.940113
      7.88949               0.954119
      7.90481               0.964368
      7.92076               0.965388
      7.93673               0.958876
      7.95204               0.946324
      7.96800               0.937700
      7.98396               0.934608
      7.99927               0.938889
      8.01524               0.946912
      8.03120               0.957041
      8.04656               0.967687
      8.06190               0.970858
      8.07751               0.970537
      8.09368               0.969953
      8.10918               0.974402
      8.12475               0.981589
      8.14092               0.989711
      8.15641               0.990395
      8.17199               0.985701
      8.18816               0.977031
      8.20364               0.970284
      8.21923               0.969607
      8.23540               0.977845
      8.25093               0.987629
      8.26627               0.995162
      8.28166               0.997574
      8.29770               0.993728
      8.31357               0.990869
      8.32890               0.992991
      8.34494               0.996048
      8.36080               0.997965
      8.37613               0.996827
      8.39218               0.985277
      8.40805               0.973850
      8.42339               0.967967
      8.43873               0.970001
      8.45443               0.979126
      8.47058               0.993384
      8.48600               0.999605
      8.50168                1.00000
      8.51782               0.995173
      8.53323               0.986122
      8.54892               0.980683
      8.56506               0.981504
      8.58046               0.985219
      8.59616               0.987150
      8.61229               0.986073
      8.62776               0.986012
      8.64310               0.985544
      8.65853               0.983825
      8.67463               0.979147
      8.69040               0.967421
      8.70577               0.948669
      8.72188               0.927436
      8.73763               0.911725
      8.75300               0.904174
      8.76912               0.904882
      8.78486               0.914303
      8.80024               0.929871
      8.81636               0.943187
      8.83212               0.950306
      8.84746               0.950160
      8.86280               0.942439
      8.87861               0.934156
      8.89470               0.927058
      8.91006               0.921759
      8.92585               0.918101
      8.94194               0.915162
      8.95729               0.910064
      8.97309               0.906575
      8.98917               0.904449
      9.00459               0.901748
      9.01992               0.898638
      9.03542               0.893965
      9.05157               0.884735
      9.06722               0.874935
      9.08265               0.865958
      9.09881               0.859820
      9.11445               0.855309
      9.12989               0.851493
      9.14605               0.847076
      9.16168               0.840031
      9.17713               0.828790
      9.19329               0.811007
      9.20896               0.786631
      9.22430               0.756845
      9.23964               0.723684
      9.25555               0.686435
      9.27157               0.645862
      9.28689               0.602633
      9.30279               0.563099
      9.31880               0.526802
      9.33412               0.492818
      9.35003               0.459027
      9.36603               0.422884
      9.38135               0.380890
      9.39727               0.336733
      9.41327               0.293037
      9.42864               0.252972
      9.44398               0.216038
      9.45956               0.180841
      9.47573               0.145640
      9.49127               0.113679
      9.50679              0.0853374
      9.52297              0.0609661
      9.53850              0.0432006
      9.55403              0.0310576
      9.57021              0.0236478
      9.58579              0.0180767
      9.60113              0.0139861
      9.61650              0.0109599
      9.63249             0.00869306
      9.64842             0.00706430
      9.66374             0.00594246
      9.67973             0.00382597
      9.69565             0.00267371
      9.71097             0.00393957
      9.72697             0.00411876
      9.74288             0.00356569
      9.75820             0.00244173
      9.77421             0.00197724
      9.79013             0.00169998
      9.80548             0.00136461
      9.82081             0.00158440
      9.83647             0.00163326
      9.85264             0.00112937
      9.86809             0.00117275
      9.88371             0.00128982
      9.89987             0.00126240
      9.91532             0.00127910
      9.93095             0.00143461
      9.94711             0.00170799
      9.96255             0.00107728
      9.97817            0.000675947
      9.99432            0.000932659
      10.0107            0.000757866
      10.0254            0.000785199
      10.0385             0.00121792
      10.0586             0.00172447
      10.0763             0.00200731
      10.0890             0.00188925
      10.1017             0.00106108
      10.1183            0.000395898
      10.1390            0.000212312
      10.1530            0.000334446
      10.1657            0.000777049
      10.1793             0.00141515
      10.1995             0.00152484
      10.2169             0.00169717
      10.2296             0.00202265
      10.2423             0.00213665
      10.2592             0.00198722
      10.2797             0.00158541
      10.2951             0.00104465
      10.3000            0.000839841
