Wavelength [microns]  Transmission [unitless]
     0.360000                0.00000
     0.360765            0.000710209
     0.361855             0.00162836
     0.363109             0.00291403
     0.364368             0.00472682
     0.365500             0.00722579
     0.366600              0.0104431
     0.367700              0.0142040
     0.368800              0.0183169
     0.369900              0.0225904
     0.371000              0.0264333
     0.372100              0.0298660
     0.373200              0.0339680
     0.374300              0.0398245
     0.375400              0.0482620
     0.376500              0.0576434
     0.377600              0.0686787
     0.378700              0.0828999
     0.379800               0.101839
     0.380900               0.126071
     0.382000               0.154483
     0.383100               0.187131
     0.384200               0.224112
     0.385300               0.265629
     0.386400               0.313218
     0.387500               0.365686
     0.388600               0.420861
     0.389700               0.476575
     0.390800               0.533308
     0.391900               0.594546
     0.393000               0.655812
     0.394100               0.712223
     0.395200               0.758989
     0.396300               0.796357
     0.397400               0.826922
     0.398500               0.852088
     0.399600               0.873260
     0.400700               0.890703
     0.401800               0.902173
     0.402900               0.909735
     0.404000               0.915845
     0.405100               0.922944
     0.406200               0.930792
     0.407300               0.938155
     0.408400               0.945035
     0.409500               0.951432
     0.410600               0.957338
     0.411700               0.962736
     0.412800               0.967651
     0.413900               0.972115
     0.415000               0.976161
     0.416100               0.979677
     0.417200               0.982659
     0.418300               0.985298
     0.419400               0.987787
     0.420500               0.990315
     0.421600               0.992916
     0.422700               0.995386
     0.423800               0.997501
     0.424900               0.999038
     0.426000               0.999828
     0.427100                1.00000
     0.428200               0.999776
     0.429300               0.999380
     0.430400               0.999032
     0.431500               0.998777
     0.432600               0.998410
     0.433700               0.997709
     0.434800               0.996450
     0.435900               0.994583
     0.437000               0.992291
     0.438100               0.989486
     0.439200               0.986073
     0.440300               0.981967
     0.441400               0.977275
     0.442500               0.971977
     0.443600               0.965978
     0.444700               0.959181
     0.445800               0.951397
     0.446900               0.942532
     0.448000               0.932982
     0.449100               0.923160
     0.450200               0.913475
     0.451300               0.903886
     0.452400               0.894185
     0.453500               0.884275
     0.454600               0.874060
     0.455700               0.863378
     0.456800               0.852101
     0.457900               0.840580
     0.459000               0.829199
     0.460100               0.818340
     0.461200               0.808242
     0.462300               0.798611
     0.463400               0.789030
     0.464500               0.779087
     0.465600               0.768418
     0.466700               0.757149
     0.467800               0.745549
     0.468900               0.733874
     0.470000               0.722379
     0.471100               0.711177
     0.472200               0.700106
     0.473300               0.689006
     0.474400               0.677717
     0.475500               0.666058
     0.476600               0.653890
     0.477700               0.641508
     0.478800               0.629261
     0.479900               0.617503
     0.481000               0.606590
     0.482100               0.596344
     0.483200               0.586223
     0.484300               0.575684
     0.485400               0.564202
     0.486500               0.551735
     0.487600               0.538716
     0.488700               0.525593
     0.489800               0.512813
     0.490900               0.500621
     0.492000               0.488740
     0.493100               0.477004
     0.494200               0.465253
     0.495300               0.453337
     0.496400               0.441293
     0.497500               0.429193
     0.498600               0.417070
     0.499700               0.404953
     0.500800               0.392787
     0.501900               0.380460
     0.503000               0.368179
     0.504100               0.356170
     0.505200               0.344660
     0.506300               0.333910
     0.507400               0.323647
     0.508500               0.313424
     0.509600               0.302796
     0.510700               0.291328
     0.511800               0.279061
     0.512900               0.266522
     0.514000               0.254253
     0.515100               0.242795
     0.516200               0.232307
     0.517300               0.222438
     0.518400               0.212869
     0.519500               0.203280
     0.520600               0.193408
     0.521700               0.183390
     0.522800               0.173375
     0.523900               0.163492
     0.525000               0.153868
     0.526100               0.144362
     0.527200               0.134918
     0.528300               0.125791
     0.529400               0.117236
     0.530500               0.109538
     0.531600               0.102883
     0.532700              0.0968394
     0.533800              0.0908965
     0.534900              0.0845434
     0.536000              0.0774134
     0.537100              0.0697999
     0.538200              0.0621814
     0.539300              0.0550369
     0.540400              0.0488168
     0.541500              0.0434596
     0.542600              0.0386731
     0.543700              0.0342019
     0.544800              0.0297907
     0.545900              0.0252572
     0.547000              0.0207341
     0.548100              0.0164143
     0.549200              0.0124890
     0.550300             0.00913663
     0.551400             0.00625921
     0.552500             0.00380922
     0.553600             0.00181865
     0.554700            0.000319425
     0.555800                0.00000
     0.556900                0.00000
     0.558000                0.00000
     0.559100                0.00000
     0.560200                0.00000
     0.561300                0.00000
     0.562400                0.00000
     0.563500                0.00000
     0.564600                0.00000
     0.565700                0.00000
     0.566800                0.00000
     0.567900                0.00000
     0.569000                0.00000
     0.570100                0.00000
     0.571200                0.00000
     0.572300                0.00000
     0.573400                0.00000
     0.574500                0.00000
     0.575600                0.00000
     0.576700                0.00000
     0.577800                0.00000
     0.578900                0.00000
     0.580000                0.00000
     0.581100                0.00000
     0.582200                0.00000
     0.583300                0.00000
     0.584400                0.00000
     0.585500                0.00000
     0.586600                0.00000
     0.587700                0.00000
     0.588800                0.00000
     0.589900                0.00000
     0.591000                0.00000
     0.592100                0.00000
     0.593200                0.00000
     0.594300                0.00000
     0.595400                0.00000
     0.596500                0.00000
     0.597600                0.00000
     0.598700                0.00000
     0.599800                0.00000
     0.600900                0.00000
     0.602000                0.00000
     0.603100                0.00000
     0.604200                0.00000
     0.605300                0.00000
     0.606400                0.00000
     0.607500                0.00000
     0.608600                0.00000
     0.609700                0.00000
     0.610800                0.00000
     0.611900                0.00000
     0.613000                0.00000
     0.614100                0.00000
     0.615200                0.00000
     0.616300                0.00000
     0.617400                0.00000
     0.618500                0.00000
     0.619600                0.00000
     0.620700                0.00000
     0.621800                0.00000
     0.622900                0.00000
     0.624000                0.00000
     0.625100                0.00000
     0.626200                0.00000
     0.627300                0.00000
     0.628400                0.00000
     0.629500                0.00000
     0.630600                0.00000
     0.631700                0.00000
     0.632800                0.00000
     0.633900                0.00000
     0.635000                0.00000
     0.636100                0.00000
     0.637200                0.00000
     0.638300                0.00000
     0.639400                0.00000
     0.640500                0.00000
     0.641600                0.00000
     0.642700                0.00000
     0.643800                0.00000
     0.644900                0.00000
     0.646000                0.00000
     0.647100                0.00000
     0.648200                0.00000
     0.649300                0.00000
     0.650400                0.00000
     0.651500                0.00000
     0.652600                0.00000
     0.653700                0.00000
     0.654800                0.00000
     0.655900                0.00000
     0.657000                0.00000
     0.658100                0.00000
     0.659200                0.00000
     0.660300                0.00000
     0.661400                0.00000
     0.662500                0.00000
     0.663600                0.00000
     0.664700                0.00000
     0.665800                0.00000
     0.666900                0.00000
     0.668000                0.00000
     0.669100                0.00000
     0.670200                0.00000
     0.671300                0.00000
     0.672400                0.00000
     0.673500                0.00000
     0.674600                0.00000
     0.675700                0.00000
     0.676800                0.00000
     0.677900                0.00000
     0.679000                0.00000
     0.680101                0.00000
     0.681309                0.00000
     0.682586                0.00000
     0.683770                0.00000
     0.684703                0.00000
     0.685000                0.00000
     0.685000                0.00000
     0.685000                0.00000
     0.685000                0.00000
