Wavelength [microns]  Transmission [unitless]
     0.360000                0.00000
     0.360765            0.000578688
     0.361855             0.00125030
     0.363109             0.00239818
     0.364368             0.00440563
     0.365500             0.00764400
     0.366600              0.0121394
     0.367700              0.0175292
     0.368800              0.0234301
     0.369900              0.0294588
     0.371000              0.0349120
     0.372100              0.0399253
     0.373200              0.0457071
     0.374300              0.0534715
     0.375400              0.0641536
     0.376500              0.0760050
     0.377600              0.0897440
     0.378700               0.106968
     0.379800               0.129274
     0.380900               0.157263
     0.382000               0.189776
     0.383100               0.226868
     0.384200               0.268634
     0.385300               0.315313
     0.386400               0.368906
     0.387500               0.427875
     0.388600               0.489409
     0.389700               0.550697
     0.390800               0.612009
     0.391900               0.677446
     0.393000               0.742200
     0.394100               0.801001
     0.395200               0.848668
     0.396300               0.885136
     0.397400               0.913395
     0.398500               0.935423
     0.399600               0.953202
     0.400700               0.967319
     0.401800               0.975027
     0.402900               0.978506
     0.404000               0.980408
     0.405100               0.983367
     0.406200               0.987079
     0.407300               0.990232
     0.408400               0.992889
     0.409500               0.995114
     0.410600               0.996949
     0.411700               0.998332
     0.412800               0.999280
     0.413900               0.999825
     0.415000                1.00000
     0.416100               0.999750
     0.417200               0.999063
     0.418300               0.998035
     0.419400               0.996763
     0.420500               0.995320
     0.421600               0.993629
     0.422700               0.991694
     0.423800               0.989547
     0.424900               0.987219
     0.426000               0.984720
     0.427100               0.982027
     0.428200               0.979141
     0.429300               0.976061
     0.430400               0.972802
     0.431500               0.969477
     0.432600               0.965984
     0.433700               0.962161
     0.434800               0.957849
     0.435900               0.952971
     0.437000               0.947632
     0.438100               0.941867
     0.439200               0.935708
     0.440300               0.929196
     0.441400               0.922456
     0.442500               0.915375
     0.443600               0.907762
     0.444700               0.899425
     0.445800               0.890121
     0.446900               0.879827
     0.448000               0.868944
     0.449100               0.857886
     0.450200               0.847061
     0.451300               0.836406
     0.452400               0.825725
     0.453500               0.814952
     0.454600               0.804025
     0.455700               0.792858
     0.456800               0.781418
     0.457900               0.769852
     0.459000               0.758320
     0.460100               0.746981
     0.461200               0.735861
     0.462300               0.724866
     0.463400               0.713930
     0.464500               0.702991
     0.465600               0.692006
     0.466700               0.681038
     0.467800               0.670069
     0.468900               0.659067
     0.470000               0.648000
     0.471100               0.636866
     0.472200               0.625683
     0.473300               0.614452
     0.474400               0.603173
     0.475500               0.591823
     0.476600               0.580295
     0.477700               0.568709
     0.478800               0.557225
     0.479900               0.546002
     0.481000               0.535176
     0.482100               0.524660
     0.483200               0.514262
     0.484300               0.503790
     0.485400               0.493068
     0.486500               0.482147
     0.487600               0.471120
     0.488700               0.460050
     0.489800               0.449002
     0.490900               0.438027
     0.492000               0.427096
     0.493100               0.416146
     0.494200               0.405113
     0.495300               0.393926
     0.496400               0.382472
     0.497500               0.370875
     0.498600               0.359326
     0.499700               0.348017
     0.500800               0.337062
     0.501900               0.326334
     0.503000               0.315792
     0.504100               0.305405
     0.505200               0.295145
     0.506300               0.285086
     0.507400               0.275205
     0.508500               0.265405
     0.509600               0.255591
     0.510700               0.245666
     0.511800               0.235634
     0.512900               0.225617
     0.514000               0.215744
     0.515100               0.206141
     0.516200               0.196795
     0.517300               0.187643
     0.518400               0.178685
     0.519500               0.169920
     0.520600               0.161355
     0.521700               0.153009
     0.522800               0.144856
     0.523900               0.136864
     0.525000               0.129000
     0.526100               0.121168
     0.527200               0.113399
     0.528300               0.105853
     0.529400              0.0986893
     0.530500              0.0920760
     0.531600              0.0860881
     0.532700              0.0805029
     0.533800              0.0750649
     0.534900              0.0695184
     0.536000              0.0636880
     0.537100              0.0577220
     0.538200              0.0518439
     0.539300              0.0462776
     0.540400              0.0412313
     0.541500              0.0366595
     0.542600              0.0324411
     0.543700              0.0284801
     0.544800              0.0246809
     0.545900              0.0209782
     0.547000              0.0174240
     0.548100              0.0140827
     0.549200              0.0110183
     0.550300             0.00828571
     0.551400             0.00579054
     0.552500             0.00356250
     0.553600             0.00169746
     0.554700            0.000291283
     0.555800                0.00000
     0.556900                0.00000
     0.558000                0.00000
     0.559100                0.00000
     0.560200                0.00000
     0.561300                0.00000
     0.562400                0.00000
     0.563500                0.00000
     0.564600                0.00000
     0.565700                0.00000
     0.566800                0.00000
     0.567900                0.00000
     0.569000                0.00000
     0.570100                0.00000
     0.571200                0.00000
     0.572300                0.00000
     0.573400                0.00000
     0.574500                0.00000
     0.575600                0.00000
     0.576700                0.00000
     0.577800                0.00000
     0.578900                0.00000
     0.580000                0.00000
     0.581100                0.00000
     0.582200                0.00000
     0.583300                0.00000
     0.584400                0.00000
     0.585500                0.00000
     0.586600                0.00000
     0.587700                0.00000
     0.588800                0.00000
     0.589900                0.00000
     0.591000                0.00000
     0.592100                0.00000
     0.593200                0.00000
     0.594300                0.00000
     0.595400                0.00000
     0.596500                0.00000
     0.597600                0.00000
     0.598700                0.00000
     0.599800                0.00000
     0.600900                0.00000
     0.602000                0.00000
     0.603100                0.00000
     0.604200                0.00000
     0.605300                0.00000
     0.606400                0.00000
     0.607500                0.00000
     0.608600                0.00000
     0.609700                0.00000
     0.610800                0.00000
     0.611900                0.00000
     0.613000                0.00000
     0.614100                0.00000
     0.615200                0.00000
     0.616300                0.00000
     0.617400                0.00000
     0.618500                0.00000
     0.619600                0.00000
     0.620700                0.00000
     0.621800                0.00000
     0.622900                0.00000
     0.624000                0.00000
     0.625100                0.00000
     0.626200                0.00000
     0.627300                0.00000
     0.628400                0.00000
     0.629500                0.00000
     0.630600                0.00000
     0.631700                0.00000
     0.632800                0.00000
     0.633900                0.00000
     0.635000                0.00000
     0.636100                0.00000
     0.637200                0.00000
     0.638300                0.00000
     0.639400                0.00000
     0.640500                0.00000
     0.641600                0.00000
     0.642700                0.00000
     0.643800                0.00000
     0.644900                0.00000
     0.646000                0.00000
     0.647100                0.00000
     0.648200                0.00000
     0.649300                0.00000
     0.650400                0.00000
     0.651500                0.00000
     0.652600                0.00000
     0.653700                0.00000
     0.654800                0.00000
     0.655900                0.00000
     0.657000                0.00000
     0.658100                0.00000
     0.659200                0.00000
     0.660300                0.00000
     0.661400                0.00000
     0.662500                0.00000
     0.663600                0.00000
     0.664700                0.00000
     0.665800                0.00000
     0.666900                0.00000
     0.668000                0.00000
     0.669100                0.00000
     0.670200                0.00000
     0.671300                0.00000
     0.672400                0.00000
     0.673500                0.00000
     0.674600                0.00000
     0.675700                0.00000
     0.676800                0.00000
     0.677900                0.00000
     0.679000                0.00000
     0.680101                0.00000
     0.681309                0.00000
     0.682586                0.00000
     0.683770                0.00000
     0.684703                0.00000
     0.685000                0.00000
     0.685000                0.00000
     0.685000                0.00000
     0.685000                0.00000
