Wavelength [microns]  Transmission [unitless]
      1.44000                0.00000
      1.44097                0.00000
      1.44218                0.00000
      1.44359                0.00000
      1.44519                0.00000
      1.44692                0.00000
      1.44875                0.00000
      1.45065                0.00000
      1.45259                0.00000
      1.45453                0.00000
      1.45644                0.00000
      1.45827                0.00000
      1.46000                0.00000
      1.46167             0.00685088
      1.46333              0.0148033
      1.46500              0.0238396
      1.46667              0.0339426
      1.46833              0.0450945
      1.47000              0.0572781
      1.47167              0.0704757
      1.47333              0.0846699
      1.47500              0.0998432
      1.47667               0.115978
      1.47833               0.133057
      1.48000               0.151063
      1.48167               0.170048
      1.48333               0.190064
      1.48500               0.211095
      1.48667               0.233122
      1.48833               0.256128
      1.49000               0.280096
      1.49167               0.305008
      1.49333               0.330847
      1.49500               0.357595
      1.49667               0.385234
      1.49833               0.413748
      1.50000               0.443118
      1.50167               0.474872
      1.50333               0.510001
      1.50500               0.547682
      1.50667               0.587094
      1.50833               0.627416
      1.51000               0.667825
      1.51167               0.707499
      1.51333               0.745617
      1.51500               0.781358
      1.51667               0.813899
      1.51833               0.842418
      1.52000               0.866095
      1.52167               0.884925
      1.52333               0.899804
      1.52500               0.911256
      1.52667               0.919806
      1.52833               0.925978
      1.53000               0.930297
      1.53167               0.933286
      1.53333               0.935472
      1.53500               0.937378
      1.53667               0.939528
      1.53833               0.942448
      1.54000               0.946662
      1.54167               0.951653
      1.54333               0.956523
      1.54500               0.961217
      1.54667               0.965684
      1.54833               0.969872
      1.55000               0.973727
      1.55167               0.977198
      1.55333               0.980231
      1.55500               0.982775
      1.55667               0.984777
      1.55833               0.986185
      1.56000               0.986945
      1.56167               0.986671
      1.56333               0.985173
      1.56500               0.982697
      1.56667               0.979485
      1.56833               0.975784
      1.57000               0.971839
      1.57167               0.967893
      1.57333               0.964192
      1.57500               0.960981
      1.57667               0.958504
      1.57833               0.957006
      1.58000               0.956733
      1.58167               0.957750
      1.58333               0.959833
      1.58500               0.962791
      1.58667               0.966430
      1.58833               0.970560
      1.59000               0.974986
      1.59167               0.979517
      1.59333               0.983961
      1.59500               0.988125
      1.59667               0.991817
      1.59833               0.994845
      1.60000               0.997016
      1.60167               0.998426
      1.60333               0.999347
      1.60500               0.999848
      1.60667                1.00000
      1.60833               0.999872
      1.61000               0.999534
      1.61167               0.999056
      1.61333               0.998508
      1.61500               0.997960
      1.61667               0.997482
      1.61833               0.997144
      1.62000               0.997016
      1.62167               0.997016
      1.62333               0.997016
      1.62500               0.997016
      1.62667               0.997016
      1.62833               0.997016
      1.63000               0.997016
      1.63167               0.997016
      1.63333               0.997016
      1.63500               0.997016
      1.63667               0.997016
      1.63833               0.997016
      1.64000               0.997016
      1.64167               0.997016
      1.64333               0.997016
      1.64500               0.997016
      1.64667               0.997016
      1.64833               0.997016
      1.65000               0.997016
      1.65167               0.997016
      1.65333               0.997016
      1.65500               0.997016
      1.65667               0.997016
      1.65833               0.997016
      1.66000               0.997016
      1.66167               0.997016
      1.66333               0.997016
      1.66500               0.997016
      1.66667               0.997016
      1.66833               0.997016
      1.67000               0.997016
      1.67167               0.997016
      1.67333               0.997016
      1.67500               0.997016
      1.67667               0.997016
      1.67833               0.997016
      1.68000               0.997016
      1.68167               0.997144
      1.68333               0.997482
      1.68500               0.997960
      1.68667               0.998508
      1.68833               0.999056
      1.69000               0.999534
      1.69167               0.999872
      1.69333                1.00000
      1.69500               0.999848
      1.69667               0.999347
      1.69833               0.998426
      1.70000               0.997016
      1.70167               0.995198
      1.70333               0.993100
      1.70500               0.990722
      1.70667               0.988064
      1.70833               0.985127
      1.71000               0.981910
      1.71167               0.978413
      1.71333               0.974636
      1.71500               0.970580
      1.71667               0.966244
      1.71833               0.961628
      1.72000               0.956733
      1.72167               0.951269
      1.72333               0.945053
      1.72500               0.938243
      1.72667               0.930996
      1.72833               0.923469
      1.73000               0.915820
      1.73167               0.908205
      1.73333               0.900783
      1.73500               0.893711
      1.73667               0.887146
      1.73833               0.881245
      1.74000               0.876166
      1.74167               0.872205
      1.74333               0.869382
      1.74500               0.867432
      1.74667               0.866095
      1.74833               0.865107
      1.75000               0.864206
      1.75167               0.863131
      1.75333               0.861619
      1.75500               0.859407
      1.75667               0.856234
      1.75833               0.851836
      1.76000               0.845953
      1.76167               0.838761
      1.76333               0.830660
      1.76500               0.821720
      1.76667               0.812010
      1.76833               0.801601
      1.77000               0.790563
      1.77167               0.778965
      1.77333               0.766878
      1.77500               0.754371
      1.77667               0.741514
      1.77833               0.728378
      1.78000               0.715032
      1.78167               0.702195
      1.78333               0.690251
      1.78500               0.678761
      1.78667               0.667288
      1.78833               0.655396
      1.79000               0.642647
      1.79167               0.628604
      1.79333               0.612831
      1.79500               0.594889
      1.79667               0.574342
      1.79833               0.550753
      1.80000               0.523685
      1.80167               0.491115
      1.80333               0.452233
      1.80500               0.408421
      1.80667               0.361059
      1.80833               0.311529
      1.81000               0.261213
      1.81167               0.211491
      1.81333               0.163744
      1.81500               0.119356
      1.81667              0.0797041
      1.81833              0.0461723
      1.82000              0.0201417
      1.82167             0.00147438
      1.82333                0.00000
      1.82500                0.00000
      1.82667                0.00000
      1.82833                0.00000
      1.83000                0.00000
      1.83167                0.00000
      1.83333                0.00000
      1.83500                0.00000
      1.83667                0.00000
      1.83833                0.00000
      1.84000                0.00000
      1.84167                0.00000
      1.84333                0.00000
      1.84500                0.00000
      1.84667                0.00000
      1.84833                0.00000
      1.85000                0.00000
      1.85167                0.00000
      1.85333                0.00000
      1.85500                0.00000
      1.85667                0.00000
      1.85833                0.00000
      1.86000                0.00000
      1.86167                0.00000
      1.86333                0.00000
      1.86500                0.00000
      1.86667                0.00000
      1.86833                0.00000
      1.87000                0.00000
      1.87167                0.00000
      1.87333                0.00000
      1.87500                0.00000
      1.87667                0.00000
      1.87833                0.00000
      1.88000                0.00000
      1.88167                0.00000
      1.88333                0.00000
      1.88500                0.00000
      1.88667                0.00000
      1.88833                0.00000
      1.89000                0.00000
      1.89167                0.00000
      1.89333                0.00000
      1.89500                0.00000
      1.89667                0.00000
      1.89833                0.00000
      1.90000                0.00000
      1.90173                0.00000
      1.90356                0.00000
      1.90547                0.00000
      1.90741                0.00000
      1.90935                0.00000
      1.91125                0.00000
      1.91308                0.00000
      1.91481                0.00000
      1.91641                0.00000
      1.91782                0.00000
      1.91903                0.00000
      1.92000                0.00000
      1.92000                0.00000
      1.92000                0.00000
      1.92000                0.00000
      1.92000                0.00000
      1.92000                0.00000
      1.92000                0.00000
      1.92000                0.00000
      1.92000                0.00000
      1.92000                0.00000
      1.92000                0.00000
      1.92000                0.00000
