Wavelength [microns]  Transmission [unitless]
     0.687500                0.00000
     0.687916             0.00134959
     0.688475             0.00318968
     0.689140             0.00538136
     0.689876             0.00778573
     0.690648              0.0102639
     0.691420              0.0126770
     0.692156              0.0148860
     0.692833              0.0167680
     0.693500              0.0183708
     0.694167              0.0198043
     0.694833              0.0211727
     0.695500              0.0225802
     0.696167              0.0241309
     0.696833              0.0259290
     0.697500              0.0280788
     0.698167              0.0302357
     0.698833              0.0321713
     0.699500              0.0341633
     0.700167              0.0364896
     0.700833              0.0394278
     0.701500              0.0432560
     0.702167              0.0482517
     0.702833              0.0543851
     0.703500              0.0602595
     0.704167              0.0662858
     0.704833              0.0732019
     0.705500              0.0817458
     0.706167              0.0926554
     0.706833               0.106669
     0.707500               0.124523
     0.708167               0.147567
     0.708833               0.175638
     0.709500               0.207207
     0.710167               0.240746
     0.710833               0.274729
     0.711500               0.307626
     0.712167               0.337910
     0.712833               0.364456
     0.713500               0.388864
     0.714167               0.411822
     0.714833               0.433695
     0.715500               0.454847
     0.716167               0.475643
     0.716833               0.496448
     0.717500               0.517626
     0.718167               0.539279
     0.718833               0.561111
     0.719500               0.582886
     0.720167               0.604370
     0.720833               0.625329
     0.721500               0.645528
     0.722167               0.664734
     0.722833               0.682794
     0.723500               0.700055
     0.724167               0.716574
     0.724833               0.732333
     0.725500               0.747315
     0.726167               0.761503
     0.726833               0.774879
     0.727500               0.787426
     0.728167               0.799057
     0.728833               0.809755
     0.729500               0.819607
     0.730167               0.828699
     0.730833               0.837118
     0.731500               0.844951
     0.732167               0.852285
     0.732833               0.859117
     0.733500               0.865041
     0.734167               0.870170
     0.734833               0.874714
     0.735500               0.878880
     0.736167               0.882877
     0.736833               0.886912
     0.737500               0.891196
     0.738167               0.895696
     0.738833               0.900209
     0.739500               0.904683
     0.740167               0.909066
     0.740833               0.913306
     0.741500               0.917350
     0.742167               0.921147
     0.742833               0.924657
     0.743500               0.927927
     0.744167               0.930985
     0.744833               0.933847
     0.745500               0.936532
     0.746167               0.939055
     0.746833               0.941436
     0.747500               0.943691
     0.748167               0.945746
     0.748833               0.947559
     0.749500               0.949189
     0.750167               0.950698
     0.750833               0.952146
     0.751500               0.953594
     0.752167               0.955103
     0.752833               0.956715
     0.753500               0.958360
     0.754167               0.960013
     0.754833               0.961667
     0.755500               0.963312
     0.756167               0.964939
     0.756833               0.966540
     0.757500               0.968107
     0.758167               0.969661
     0.758833               0.971220
     0.759500               0.972766
     0.760167               0.974281
     0.760833               0.975748
     0.761500               0.977151
     0.762167               0.978471
     0.762833               0.979694
     0.763500               0.980833
     0.764167               0.981898
     0.764833               0.982897
     0.765500               0.983841
     0.766167               0.984736
     0.766833               0.985593
     0.767500               0.986419
     0.768167               0.987221
     0.768833               0.987992
     0.769500               0.988724
     0.770167               0.989408
     0.770833               0.990036
     0.771500               0.990599
     0.772167               0.991088
     0.772833               0.991490
     0.773500               0.991781
     0.774167               0.991981
     0.774833               0.992115
     0.775500               0.992211
     0.776167               0.992293
     0.776833               0.992389
     0.777500               0.992523
     0.778167               0.992667
     0.778833               0.992785
     0.779500               0.992894
     0.780167               0.993012
     0.780833               0.993156
     0.781500               0.993344
     0.782167               0.993592
     0.782833               0.993922
     0.783500               0.994359
     0.784167               0.994874
     0.784833               0.995433
     0.785500               0.996000
     0.786167               0.996541
     0.786833               0.997022
     0.787500               0.997406
     0.788167               0.997692
     0.788833               0.997907
     0.789500               0.998071
     0.790167               0.998199
     0.790833               0.998311
     0.791500               0.998422
     0.792167               0.998551
     0.792833               0.998711
     0.793500               0.998891
     0.794167               0.999079
     0.794833               0.999268
     0.795500               0.999448
     0.796167               0.999610
     0.796833               0.999746
     0.797500               0.999848
     0.798167               0.999919
     0.798833               0.999967
     0.799500               0.999995
     0.800167                1.00000
     0.800833               0.999984
     0.801500               0.999946
     0.802167               0.999886
     0.802833               0.999802
     0.803500               0.999682
     0.804167               0.999532
     0.804833               0.999359
     0.805500               0.999174
     0.806167               0.998985
     0.806833               0.998800
     0.807500               0.998627
     0.808167               0.998465
     0.808833               0.998302
     0.809500               0.998139
     0.810167               0.997976
     0.810833               0.997814
     0.811500               0.997651
     0.812167               0.997488
     0.812833               0.997330
     0.813500               0.997201
     0.814167               0.997090
     0.814833               0.996979
     0.815500               0.996850
     0.816167               0.996686
     0.816833               0.996471
     0.817500               0.996186
     0.818167               0.995820
     0.818833               0.995384
     0.819500               0.994896
     0.820167               0.994374
     0.820833               0.993834
     0.821500               0.993295
     0.822167               0.992773
     0.822833               0.992302
     0.823500               0.991967
     0.824167               0.991709
     0.824833               0.991452
     0.825500               0.991117
     0.826167               0.990625
     0.826833               0.989899
     0.827500               0.988861
     0.828167               0.987655
     0.828833               0.986410
     0.829500               0.985023
     0.830167               0.983387
     0.830833               0.981400
     0.831500               0.978957
     0.832167               0.975955
     0.832833               0.972401
     0.833500               0.968810
     0.834167               0.965032
     0.834833               0.960799
     0.835500               0.955840
     0.836167               0.949888
     0.836833               0.942672
     0.837500               0.933924
     0.838167               0.923596
     0.838833               0.911918
     0.839500               0.899038
     0.840167               0.885103
     0.840833               0.870261
     0.841500               0.854659
     0.842167               0.838445
     0.842833               0.821705
     0.843500               0.804176
     0.844167               0.785843
     0.844833               0.766752
     0.845500               0.746944
     0.846167               0.726463
     0.846833               0.705353
     0.847500               0.683657
     0.848167               0.661394
     0.848833               0.638532
     0.849500               0.615037
     0.850167               0.590873
     0.850833               0.566006
     0.851500               0.540401
     0.852167               0.514024
     0.852833               0.486602
     0.853500               0.457015
     0.854167               0.425838
     0.854833               0.393924
     0.855500               0.362123
     0.856167               0.331286
     0.856833               0.302262
     0.857500               0.275904
     0.858167               0.251923
     0.858833               0.229421
     0.859500               0.208339
     0.860167               0.188616
     0.860833               0.170191
     0.861500               0.153002
     0.862167               0.136990
     0.862833               0.122147
     0.863500               0.108711
     0.864167              0.0966251
     0.864833              0.0857764
     0.865500              0.0760518
     0.866167              0.0673387
     0.866833              0.0595240
     0.867500              0.0524951
     0.868167              0.0467219
     0.868833              0.0424897
     0.869500              0.0394079
     0.870167              0.0370856
     0.870833              0.0351323
     0.871500              0.0331573
     0.872167              0.0307700
     0.872833              0.0276667
     0.873500              0.0241819
     0.874167              0.0205277
     0.874833              0.0168519
     0.875500              0.0133019
     0.876167              0.0100255
     0.876833             0.00717004
     0.877500             0.00488321
     0.878205             0.00321642
     0.878964             0.00205312
     0.879740             0.00128917
     0.880499            0.000820379
     0.881204            0.000542582
     0.881820            0.000351589
     0.882312            0.000143238
     0.882500                0.00000
     0.882500                0.00000
     0.882500                0.00000
     0.882500                0.00000
     0.882500                0.00000
     0.882500                0.00000
     0.882500                0.00000
