Wavelength [microns]  Transmission [unitless]
      1.06200                0.00000
      1.06313            8.53899e-05
      1.06474            0.000225472
      1.06628            0.000464913
      1.06765            0.000841730
      1.06907             0.00128504
      1.07067             0.00168815
      1.07254             0.00199884
      1.07436             0.00241558
      1.07574             0.00308814
      1.07674             0.00391754
      1.07774             0.00516073
      1.07910             0.00708097
      1.08065             0.00955008
      1.08198              0.0122138
      1.08281              0.0148914
      1.08340              0.0177401
      1.08416              0.0209021
      1.08524              0.0245229
      1.08638              0.0283455
      1.08730              0.0320040
      1.08792              0.0354708
      1.08859              0.0389737
      1.08970              0.0428164
      1.09120              0.0470874
      1.09270              0.0508687
      1.09381              0.0530516
      1.09471              0.0540996
      1.09594              0.0562657
      1.09795              0.0537033
      1.10033              0.0531830
      1.10225              0.0788115
      1.10350               0.148818
      1.10444               0.232747
      1.10530               0.289216
      1.10603               0.318119
      1.10669               0.334750
      1.10738               0.347814
      1.10804               0.353405
      1.10878               0.357191
      1.10970               0.366077
      1.11075               0.377290
      1.11193               0.380691
      1.11339               0.370617
      1.11496               0.351512
      1.11612               0.327196
      1.11652               0.291844
      1.11669               0.255203
      1.11727               0.236135
      1.11830               0.236766
      1.11948               0.246018
      1.12054               0.256021
      1.12150               0.271125
      1.12263               0.282521
      1.12426               0.280704
      1.12628               0.269368
      1.12792               0.258900
      1.12855               0.244140
      1.12867               0.231488
      1.12909               0.258827
      1.13010               0.374187
      1.13129               0.504111
      1.13226               0.526072
      1.13289               0.393322
      1.13355               0.248198
      1.13464               0.252615
      1.13618               0.406649
      1.13766               0.532654
      1.13862               0.461197
      1.13924               0.249800
      1.13992               0.111743
      1.14086               0.207521
      1.14193               0.416792
      1.14313               0.531303
      1.14436               0.458854
      1.14577               0.322217
      1.14763               0.255540
      1.15016               0.279178
      1.15282               0.317960
      1.15500               0.299416
      1.15678               0.215991
      1.15846               0.166371
      1.16028               0.250413
      1.16216               0.438727
      1.16384               0.597537
      1.16510               0.640563
      1.16609               0.626520
      1.16709               0.619519
      1.16816               0.637870
      1.16923               0.661160
      1.17030               0.682427
      1.17143               0.702771
      1.17250               0.721019
      1.17337               0.732847
      1.17398               0.735993
      1.17468               0.742191
      1.17584               0.765469
      1.17736               0.802958
      1.17883               0.829723
      1.17997               0.825822
      1.18096               0.804517
      1.18208               0.790735
      1.18354               0.793588
      1.18506               0.803086
      1.18626               0.812615
      1.18692               0.823576
      1.18752               0.833942
      1.18855               0.839983
      1.19003               0.844316
      1.19154               0.841000
      1.19275               0.821489
      1.19375               0.786927
      1.19482               0.754196
      1.19617               0.733519
      1.19768               0.718747
      1.19906               0.708167
      1.20002               0.702062
      1.20093               0.699851
      1.20246               0.699335
      1.20483               0.701553
      1.20754               0.704637
      1.21012               0.704932
      1.21272               0.701406
      1.21519               0.699795
      1.21725               0.706977
      1.21895               0.722204
      1.22068               0.732929
      1.22277               0.724623
      1.22503               0.705889
      1.22705               0.706865
      1.22857               0.746852
      1.22988               0.804872
      1.23137               0.851559
      1.23317               0.884426
      1.23501               0.910337
      1.23665               0.930015
      1.23809               0.942151
      1.23946               0.950274
      1.24090               0.958077
      1.24238               0.964416
      1.24376               0.968069
      1.24485               0.968578
      1.24576               0.966202
      1.24701               0.960211
      1.24910               0.948849
      1.25150               0.934194
      1.25327               0.921066
      1.25409               0.910704
      1.25458               0.900602
      1.25539               0.888596
      1.25650               0.874977
      1.25761               0.860026
      1.25844               0.843553
      1.25898               0.825420
      1.25976               0.806752
      1.26120               0.788834
      1.26308               0.771030
      1.26498               0.750893
      1.26677               0.724813
      1.26855               0.696721
      1.27034               0.675538
      1.27217               0.663867
      1.27397               0.656916
      1.27557               0.650326
      1.27685               0.644371
      1.27825               0.640269
      1.28027               0.638859
      1.28285               0.640231
      1.28547               0.642506
      1.28776               0.643689
      1.28992               0.644688
      1.29194               0.648889
      1.29381               0.657328
      1.29555               0.669339
      1.29730               0.686275
      1.29918               0.712144
      1.30100               0.740006
      1.30250               0.758754
      1.30365               0.767000
      1.30461               0.772734
      1.30545               0.784064
      1.30610               0.800721
      1.30679               0.811888
      1.30774               0.808732
      1.30884               0.795291
      1.30995               0.778399
      1.31102               0.749186
      1.31209               0.718114
      1.31316               0.727536
      1.31423               0.812366
      1.31530               0.915745
      1.31636               0.956254
      1.31738               0.922820
      1.31845               0.870629
      1.31973               0.845311
      1.32121               0.831872
      1.32266               0.836419
      1.32384               0.878302
      1.32483               0.952060
      1.32592                1.00000
      1.32730               0.982831
      1.32880               0.932043
      1.33016               0.892501
      1.33138               0.888148
      1.33244               0.882966
      1.33320               0.830863
      1.33355               0.720159
      1.33380               0.592139
      1.33430               0.473937
      1.33496               0.334996
      1.33575               0.269792
      1.33667               0.398957
      1.33772               0.685580
      1.33890               0.899983
      1.34027               0.895883
      1.34177               0.781665
      1.34314               0.683095
      1.34426               0.638314
      1.34528               0.597690
      1.34632               0.526785
      1.34734               0.415760
      1.34841               0.295576
      1.34969               0.194376
      1.35122               0.101464
      1.35265              0.0292572
      1.35357                0.00000
      1.35409                0.00000
      1.35488                0.00000
      1.35645              0.0115889
      1.35843              0.0308775
      1.36013              0.0400848
      1.36113              0.0302619
      1.36201              0.0131460
      1.36358             0.00260426
      1.36618                0.00000
      1.36891                0.00000
      1.37074             0.00519832
      1.37176              0.0223435
      1.37264              0.0361081
      1.37386              0.0326339
      1.37521              0.0161525
      1.37679             0.00147852
      1.37877                0.00000
      1.38102                0.00000
      1.38315                0.00000
      1.38503                0.00000
      1.38680                0.00000
      1.38843            0.000356774
      1.38994             0.00171622
      1.39132             0.00303957
      1.39258             0.00302910
      1.39376             0.00137489
      1.39474            0.000193575
      1.39537             0.00129214
      1.39569             0.00398902
      1.39595             0.00786530
      1.39631              0.0105400
      1.39666              0.0137253
      1.39702              0.0265657
      1.39733              0.0642549
      1.39766               0.106884
      1.39815               0.115333
      1.39888              0.0735889
      1.39965              0.0192003
      1.40022                0.00000
      1.40058                0.00000
      1.40088                0.00000
      1.40121              0.0104011
      1.40152              0.0346982
      1.40192              0.0515102
      1.40253              0.0440438
      1.40327              0.0225013
      1.40403              0.0103778
      1.40478              0.0220861
      1.40553              0.0415793
      1.40611              0.0467066
      1.40640              0.0301575
      1.40668             0.00827532
      1.40736                0.00000
      1.40847                0.00000
      1.40963             0.00168066
      1.41048             0.00294187
      1.41107             0.00396527
      1.41182             0.00506639
      1.41300             0.00656745
      1.41445             0.00828535
      1.41603             0.00863889
      1.41774             0.00629136
      1.41957             0.00272037
      1.42135            0.000452614
      1.42258            1.77151e-05
      1.42423            0.000270316
      1.42783            0.000334871
      1.43387            0.000363861
      1.44008            0.000391958
      1.44441            0.000316634
      1.44757            0.000156241
      1.44970            1.59674e-05
      1.45000                0.00000
      1.45000                0.00000
