Wavelength [microns]  Transmission [unitless]
      1.94000                0.00000
      1.94097             0.00604552
      1.94218              0.0137914
      1.94359              0.0229541
      1.94519              0.0332504
      1.94692              0.0443968
      1.94875              0.0561100
      1.95065              0.0681066
      1.95259              0.0801032
      1.95453              0.0918164
      1.95644               0.102963
      1.95827               0.113259
      1.96000               0.122422
      1.96167               0.130587
      1.96333               0.138150
      1.96500               0.145217
      1.96667               0.151894
      1.96833               0.158288
      1.97000               0.164504
      1.97167               0.170650
      1.97333               0.176832
      1.97500               0.183155
      1.97667               0.189726
      1.97833               0.196651
      1.98000               0.204036
      1.98167               0.211337
      1.98333               0.218088
      1.98500               0.224520
      1.98667               0.230863
      1.98833               0.237349
      1.99000               0.244206
      1.99167               0.251666
      1.99333               0.259958
      1.99500               0.269312
      1.99667               0.279960
      1.99833               0.292130
      2.00000               0.306055
      2.00167               0.322146
      2.00333               0.340415
      2.00500               0.360491
      2.00667               0.382002
      2.00833               0.404575
      2.01000               0.427839
      2.01167               0.451422
      2.01333               0.474952
      2.01500               0.498056
      2.01667               0.520364
      2.01833               0.541502
      2.02000               0.561100
      2.02167               0.580630
      2.02333               0.601435
      2.02500               0.622949
      2.02667               0.644604
      2.02833               0.665834
      2.03000               0.686073
      2.03167               0.704752
      2.03333               0.721307
      2.03500               0.735169
      2.03667               0.745772
      2.03833               0.752550
      2.04000               0.754935
      2.04167               0.751024
      2.04333               0.740222
      2.04500               0.723931
      2.04667               0.703548
      2.04833               0.680473
      2.05000               0.656105
      2.05167               0.631843
      2.05333               0.609087
      2.05500               0.589235
      2.05667               0.573687
      2.05833               0.563843
      2.06000               0.561100
      2.06167               0.565614
      2.06333               0.575954
      2.06500               0.591148
      2.06667               0.610220
      2.06833               0.632197
      2.07000               0.656105
      2.07167               0.680969
      2.07333               0.705815
      2.07500               0.729669
      2.07667               0.751558
      2.07833               0.770506
      2.08000               0.785540
      2.08167               0.797440
      2.08333               0.807762
      2.08500               0.816704
      2.08667               0.824458
      2.08833               0.831221
      2.09000               0.837187
      2.09167               0.842551
      2.09333               0.847507
      2.09500               0.852251
      2.09667               0.856977
      2.09833               0.861880
      2.10000               0.867155
      2.10167               0.872510
      2.10333               0.877546
      2.10500               0.882298
      2.10667               0.886803
      2.10833               0.891095
      2.11000               0.895210
      2.11167               0.899183
      2.11333               0.903050
      2.11500               0.906846
      2.11667               0.910607
      2.11833               0.914368
      2.12000               0.918164
      2.12167               0.922052
      2.12333               0.926028
      2.12500               0.930040
      2.12667               0.934034
      2.12833               0.937957
      2.13000               0.941756
      2.13167               0.945378
      2.13333               0.948769
      2.13500               0.951878
      2.13667               0.954650
      2.13833               0.957032
      2.14000               0.958971
      2.14167               0.960368
      2.14333               0.961215
      2.14500               0.961601
      2.14667               0.961616
      2.14833               0.961348
      2.15000               0.960884
      2.15167               0.960314
      2.15333               0.959727
      2.15500               0.959210
      2.15667               0.958853
      2.15833               0.958744
      2.16000               0.958971
      2.16167               0.959529
      2.16333               0.960317
      2.16500               0.961283
      2.16667               0.962372
      2.16833               0.963532
      2.17000               0.964710
      2.17167               0.965852
      2.17333               0.966906
      2.17500               0.967818
      2.17667               0.968535
      2.17833               0.969005
      2.18000               0.969173
      2.18167               0.968940
      2.18333               0.968299
      2.18500               0.967340
      2.18667               0.966150
      2.18833               0.964819
      2.19000               0.963435
      2.19167               0.962086
      2.19333               0.960860
      2.19500               0.959848
      2.19667               0.959137
      2.19833               0.958815
      2.20000               0.958971
      2.20167               0.959600
      2.20333               0.960601
      2.20500               0.961920
      2.20667               0.963505
      2.20833               0.965303
      2.21000               0.967260
      2.21167               0.969324
      2.21333               0.971440
      2.21500               0.973557
      2.21667               0.975620
      2.21833               0.977577
      2.22000               0.979375
      2.22167               0.981173
      2.22333               0.983130
      2.22500               0.985193
      2.22667               0.987310
      2.22833               0.989426
      2.23000               0.991490
      2.23167               0.993447
      2.23333               0.995244
      2.23500               0.996830
      2.23667               0.998149
      2.23833               0.999150
      2.24000               0.999779
      2.24167                1.00000
      2.24333               0.999849
      2.24500               0.999380
      2.24667               0.998645
      2.24833               0.997698
      2.25000               0.996590
      2.25167               0.995377
      2.25333               0.994111
      2.25500               0.992845
      2.25667               0.991631
      2.25833               0.990524
      2.26000               0.989577
      2.26167               0.988856
      2.26333               0.988349
      2.26500               0.987983
      2.26667               0.987688
      2.26833               0.987392
      2.27000               0.987026
      2.27167               0.986519
      2.27333               0.985798
      2.27500               0.984795
      2.27667               0.983437
      2.27833               0.981654
      2.28000               0.979375
      2.28167               0.976488
      2.28333               0.972999
      2.28500               0.969014
      2.28667               0.964639
      2.28833               0.959981
      2.29000               0.955146
      2.29167               0.950239
      2.29333               0.945369
      2.29500               0.940640
      2.29667               0.936159
      2.29833               0.932032
      2.30000               0.928366
      2.30167               0.925134
      2.30333               0.922202
      2.30500               0.919519
      2.30667               0.917030
      2.30833               0.914684
      2.31000               0.912426
      2.31167               0.910203
      2.31333               0.907962
      2.31500               0.905651
      2.31667               0.903215
      2.31833               0.900603
      2.32000               0.897760
      2.32160               0.894879
      2.32310               0.892140
      2.32453               0.889471
      2.32593               0.886803
      2.32732               0.884063
      2.32875               0.881182
      2.33025               0.878089
      2.33185               0.874712
      2.33359               0.870981
      2.33551               0.866824
      2.33763               0.862172
      2.34000               0.856953
      2.34270               0.851152
      2.34574               0.844838
      2.34906               0.838064
      2.35259               0.830882
      2.35626               0.823345
      2.36000               0.815508
      2.36374               0.807423
      2.36741               0.799143
      2.37094               0.790721
      2.37426               0.782210
      2.37730               0.773665
      2.38000               0.765137
      2.38230               0.757896
      2.38426               0.752691
      2.38594               0.748798
      2.38741               0.745489
      2.38874               0.742038
      2.39000               0.737719
      2.39126               0.731807
      2.39259               0.723574
      2.39406               0.712294
      2.39574               0.697242
      2.39770               0.677692
      2.40000               0.652917
      2.40263               0.620938
      2.40551               0.581291
      2.40859               0.535516
      2.41185               0.485153
      2.41525               0.431743
      2.41875               0.376830
      2.42232               0.321950
      2.42593               0.268647
      2.42953               0.218462
      2.43310               0.172935
      2.43660               0.133606
      2.44000               0.102018
      2.44346              0.0774758
      2.44713              0.0578573
      2.45094              0.0425607
      2.45481              0.0309832
      2.45869              0.0225230
      2.46250              0.0165780
      2.46617              0.0125456
      2.46963             0.00982394
      2.47281             0.00781077
      2.47565             0.00590383
      2.47807             0.00350091
      2.48000                0.00000
      2.48000                0.00000
      2.48000                0.00000
      2.48000                0.00000
      2.48000                0.00000
      2.48000                0.00000
      2.48000                0.00000
      2.48000                0.00000
      2.48000                0.00000
      2.48000                0.00000
      2.48000                0.00000
      2.48000                0.00000
