Wavelength [microns]  Transmission [unitless]
      3.04000                0.00000
      3.04193            0.000916919
      3.04435             0.00181412
      3.04719             0.00275076
      3.05037             0.00378599
      3.05383             0.00497897
      3.05750             0.00638885
      3.06131             0.00807480
      3.06519              0.0100960
      3.06906              0.0125115
      3.07287              0.0153806
      3.07654              0.0187623
      3.08000              0.0227159
      3.08333              0.0265578
      3.08667              0.0297884
      3.09000              0.0327429
      3.09333              0.0357565
      3.09667              0.0391646
      3.10000              0.0433022
      3.10333              0.0485047
      3.10667              0.0551071
      3.11000              0.0634449
      3.11333              0.0738530
      3.11667              0.0866669
      3.12000               0.102222
      3.12333               0.122259
      3.12667               0.147522
      3.13000               0.176847
      3.13333               0.209071
      3.13667               0.243029
      3.14000               0.277560
      3.14333               0.311499
      3.14667               0.343684
      3.15000               0.372949
      3.15333               0.398133
      3.15667               0.418072
      3.16000               0.431602
      3.16333               0.437732
      3.16667               0.437097
      3.17000               0.430981
      3.17333               0.420665
      3.17667               0.407431
      3.18000               0.392559
      3.18333               0.377333
      3.18667               0.363034
      3.19000               0.350943
      3.19333               0.342343
      3.19667               0.338514
      3.20000               0.340739
      3.20333               0.348860
      3.20667               0.361378
      3.21000               0.377563
      3.21333               0.396687
      3.21667               0.418020
      3.22000               0.440831
      3.22333               0.464391
      3.22667               0.487972
      3.23000               0.510842
      3.23333               0.532273
      3.23667               0.551535
      3.24000               0.567898
      3.24333               0.583009
      3.24667               0.598712
      3.25000               0.614572
      3.25333               0.630156
      3.25667               0.645031
      3.26000               0.658762
      3.26333               0.670915
      3.26667               0.681057
      3.27000               0.688754
      3.27333               0.693572
      3.27667               0.695077
      3.28000               0.692836
      3.28333               0.685185
      3.28667               0.671539
      3.29000               0.653083
      3.29333               0.630998
      3.29667               0.606468
      3.30000               0.580676
      3.30333               0.554805
      3.30667               0.530038
      3.31000               0.507559
      3.31333               0.488550
      3.31667               0.474195
      3.32000               0.465676
      3.32333               0.462590
      3.32667               0.463389
      3.33000               0.467540
      3.33333               0.474510
      3.33667               0.483768
      3.34000               0.494781
      3.34333               0.507017
      3.34667               0.519942
      3.35000               0.533026
      3.35333               0.545734
      3.35667               0.557536
      3.36000               0.567898
      3.36333               0.577586
      3.36667               0.587669
      3.37000               0.598068
      3.37333               0.608703
      3.37667               0.619495
      3.38000               0.630367
      3.38333               0.641238
      3.38667               0.652031
      3.39000               0.662666
      3.39333               0.673064
      3.39667               0.683147
      3.40000               0.692836
      3.40333               0.701932
      3.40667               0.710398
      3.41000               0.718391
      3.41333               0.726068
      3.41667               0.733588
      3.42000               0.741107
      3.42333               0.748784
      3.42667               0.756777
      3.43000               0.765243
      3.43333               0.774339
      3.43667               0.784225
      3.44000               0.795057
      3.44333               0.807303
      3.44667               0.821086
      3.45000               0.836052
      3.45333               0.851847
      3.45667               0.868115
      3.46000               0.884501
      3.46333               0.900651
      3.46667               0.916209
      3.47000               0.930820
      3.47333               0.944131
      3.47667               0.955784
      3.48000               0.965427
      3.48333               0.973291
      3.48667               0.979913
      3.49000               0.985392
      3.49333               0.989825
      3.49667               0.993312
      3.50000               0.995951
      3.50333               0.997841
      3.50667               0.999080
      3.51000               0.999767
      3.51333                1.00000
      3.51667               0.999878
      3.52000               0.999500
      3.52333               0.998353
      3.52667               0.996004
      3.53000               0.992668
      3.53333               0.988563
      3.53667               0.983906
      3.54000               0.978914
      3.54333               0.973804
      3.54667               0.968792
      3.55000               0.964096
      3.55333               0.959932
      3.55667               0.956517
      3.56000               0.954069
      3.56333               0.952478
      3.56667               0.951439
      3.57000               0.950874
      3.57333               0.950703
      3.57667               0.950848
      3.58000               0.951229
      3.58333               0.951768
      3.58667               0.952386
      3.59000               0.953004
      3.59333               0.953543
      3.59667               0.953924
      3.60000               0.954069
      3.60333               0.953996
      3.60667               0.953806
      3.61000               0.953536
      3.61333               0.953227
      3.61667               0.952918
      3.62000               0.952649
      3.62333               0.952458
      3.62667               0.952386
      3.63000               0.952471
      3.63333               0.952754
      3.63667               0.953273
      3.64000               0.954069
      3.64333               0.955998
      3.64667               0.959564
      3.65000               0.964273
      3.65333               0.969633
      3.65667               0.975151
      3.66000               0.980334
      3.66333               0.984688
      3.66667               0.987722
      3.67000               0.988941
      3.67333               0.987853
      3.67667               0.983965
      3.68000               0.976785
      3.68333               0.966958
      3.68667               0.955436
      3.69000               0.942178
      3.69333               0.927146
      3.69667               0.910299
      3.70000               0.891600
      3.70333               0.871007
      3.70667               0.848481
      3.71000               0.823984
      3.71333               0.797476
      3.71667               0.768916
      3.72000               0.738267
      3.72333               0.703549
      3.72667               0.663546
      3.73000               0.619364
      3.73333               0.572104
      3.73667               0.522873
      3.74000               0.472775
      3.74333               0.422913
      3.74667               0.374391
      3.75000               0.328316
      3.75333               0.285789
      3.75667               0.247916
      3.76000               0.215801
      3.76333               0.188878
      3.76667               0.165584
      3.77000               0.145524
      3.77333               0.128303
      3.77667               0.113527
      3.78000               0.100802
      3.78333              0.0897331
      3.78667              0.0799262
      3.79000              0.0709872
      3.79333              0.0625213
      3.79667              0.0541342
      3.80000              0.0454318
      3.80333              0.0371269
      3.80667              0.0301038
      3.81000              0.0242244
      3.81333              0.0193506
      3.81667              0.0153444
      3.82000              0.0120678
      3.82333             0.00938279
      3.82667             0.00715127
      3.83000             0.00523531
      3.83333             0.00349677
      3.83667             0.00179766
      3.84000                0.00000
      3.84333                0.00000
      3.84667                0.00000
      3.85000                0.00000
      3.85333                0.00000
      3.85667                0.00000
      3.86000                0.00000
      3.86333                0.00000
      3.86667                0.00000
      3.87000                0.00000
      3.87333                0.00000
      3.87667                0.00000
      3.88000                0.00000
      3.88333                0.00000
      3.88667                0.00000
      3.89000                0.00000
      3.89333                0.00000
      3.89667                0.00000
      3.90000                0.00000
      3.90333                0.00000
      3.90667                0.00000
      3.91000                0.00000
      3.91333                0.00000
      3.91667                0.00000
      3.92000                0.00000
      3.92333                0.00000
      3.92667                0.00000
      3.93000                0.00000
      3.93333                0.00000
      3.93667                0.00000
      3.94000                0.00000
      3.94333                0.00000
      3.94667                0.00000
      3.95000                0.00000
      3.95333                0.00000
      3.95667                0.00000
      3.96000                0.00000
      3.96346                0.00000
      3.96713                0.00000
      3.97094                0.00000
      3.97481                0.00000
      3.97869                0.00000
      3.98250                0.00000
      3.98617                0.00000
      3.98963                0.00000
      3.99281                0.00000
      3.99565                0.00000
      3.99807                0.00000
      4.00000                0.00000
      4.00000                0.00000
      4.00000                0.00000
      4.00000                0.00000
      4.00000                0.00000
      4.00000                0.00000
      4.00000                0.00000
      4.00000                0.00000
      4.00000                0.00000
      4.00000                0.00000
      4.00000                0.00000
      4.00000                0.00000
