Wavelength [microns]  Transmission [unitless]
     0.305000                0.00000
     0.305765             0.00236084
     0.306855             0.00540928
     0.308109             0.00968782
     0.309368              0.0157390
     0.310500              0.0241738
     0.311600              0.0354338
     0.312700              0.0485525
     0.313800              0.0623810
     0.314900              0.0757705
     0.316000              0.0882753
     0.317100               0.100630
     0.318200               0.113159
     0.319300               0.126181
     0.320400               0.139987
     0.321500               0.154460
     0.322600               0.169474
     0.323700               0.184967
     0.324800               0.200873
     0.325900               0.216955
     0.327000               0.233128
     0.328100               0.249892
     0.329200               0.267755
     0.330300               0.287233
     0.331400               0.308589
     0.332500               0.331307
     0.333600               0.354751
     0.334700               0.378282
     0.335800               0.401623
     0.336900               0.425312
     0.338000               0.449201
     0.339100               0.473100
     0.340200               0.496823
     0.341300               0.520442
     0.342400               0.544023
     0.343500               0.567534
     0.344600               0.590944
     0.345700               0.614130
     0.346800               0.636922
     0.347900               0.659663
     0.349000               0.682737
     0.350100               0.706533
     0.351200               0.731971
     0.352300               0.758502
     0.353400               0.784689
     0.354500               0.809097
     0.355600               0.830563
     0.356700               0.849778
     0.357800               0.867314
     0.358900               0.883619
     0.360000               0.899138
     0.361100               0.913981
     0.362200               0.927874
     0.363300               0.940690
     0.364400               0.952301
     0.365500               0.962611
     0.366600               0.971738
     0.367700               0.979660
     0.368800               0.986313
     0.369900               0.991633
     0.371000               0.995685
     0.372100               0.998527
     0.373200                1.00000
     0.374300               0.999945
     0.375400               0.998420
     0.376500               0.997046
     0.377600               0.994453
     0.378700               0.988471
     0.379800               0.976931
     0.380900               0.958695
     0.382000               0.935143
     0.383100               0.906950
     0.384200               0.874752
     0.385300               0.839084
     0.386400               0.798769
     0.387500               0.754277
     0.388600               0.706883
     0.389700               0.657865
     0.390800               0.606745
     0.391900               0.551249
     0.393000               0.494550
     0.394100               0.440094
     0.395200               0.391231
     0.396300               0.346831
     0.397400               0.305602
     0.398500               0.267894
     0.399600               0.234061
     0.400700               0.204741
     0.401800               0.180478
     0.402900               0.159846
     0.404000               0.141281
     0.405100               0.123231
     0.406200               0.106149
     0.407300              0.0907069
     0.408400              0.0764584
     0.409500              0.0629567
     0.410600              0.0496712
     0.411700              0.0363074
     0.412800              0.0237473
     0.413900              0.0129801
     0.415000             0.00499521
     0.416100            0.000659567
     0.417200                0.00000
     0.418300                0.00000
     0.419400            6.98200e-05
     0.420500                0.00000
     0.421600                0.00000
     0.422700                0.00000
     0.423800                0.00000
     0.424900                0.00000
     0.426000                0.00000
     0.427100                0.00000
     0.428200                0.00000
     0.429300                0.00000
     0.430400                0.00000
     0.431500                0.00000
     0.432600                0.00000
     0.433700                0.00000
     0.434800                0.00000
     0.435900                0.00000
     0.437000                0.00000
     0.438100                0.00000
     0.439200                0.00000
     0.440300                0.00000
     0.441400                0.00000
     0.442500                0.00000
     0.443600                0.00000
     0.444700                0.00000
     0.445800                0.00000
     0.446900                0.00000
     0.448000                0.00000
     0.449100                0.00000
     0.450200                0.00000
     0.451300                0.00000
     0.452400                0.00000
     0.453500                0.00000
     0.454600                0.00000
     0.455700                0.00000
     0.456800                0.00000
     0.457900                0.00000
     0.459000                0.00000
     0.460100                0.00000
     0.461200                0.00000
     0.462300                0.00000
     0.463400                0.00000
     0.464500                0.00000
     0.465600                0.00000
     0.466700                0.00000
     0.467800                0.00000
     0.468900                0.00000
     0.470000                0.00000
     0.471100                0.00000
     0.472200                0.00000
     0.473300                0.00000
     0.474400                0.00000
     0.475500                0.00000
     0.476600                0.00000
     0.477700                0.00000
     0.478800                0.00000
     0.479900                0.00000
     0.481000                0.00000
     0.482100                0.00000
     0.483200                0.00000
     0.484300                0.00000
     0.485400                0.00000
     0.486500                0.00000
     0.487600                0.00000
     0.488700                0.00000
     0.489800                0.00000
     0.490900                0.00000
     0.492000                0.00000
     0.493100                0.00000
     0.494200                0.00000
     0.495300                0.00000
     0.496400                0.00000
     0.497500                0.00000
     0.498600                0.00000
     0.499700                0.00000
     0.500800                0.00000
     0.501900                0.00000
     0.503000                0.00000
     0.504100                0.00000
     0.505200                0.00000
     0.506300                0.00000
     0.507400                0.00000
     0.508500                0.00000
     0.509600                0.00000
     0.510700                0.00000
     0.511800                0.00000
     0.512900                0.00000
     0.514000                0.00000
     0.515100                0.00000
     0.516200                0.00000
     0.517300                0.00000
     0.518400                0.00000
     0.519500                0.00000
     0.520600                0.00000
     0.521700                0.00000
     0.522800                0.00000
     0.523900                0.00000
     0.525000                0.00000
     0.526100                0.00000
     0.527200                0.00000
     0.528300                0.00000
     0.529400                0.00000
     0.530500                0.00000
     0.531600                0.00000
     0.532700                0.00000
     0.533800                0.00000
     0.534900                0.00000
     0.536000                0.00000
     0.537100                0.00000
     0.538200                0.00000
     0.539300                0.00000
     0.540400                0.00000
     0.541500                0.00000
     0.542600                0.00000
     0.543700                0.00000
     0.544800                0.00000
     0.545900                0.00000
     0.547000                0.00000
     0.548100                0.00000
     0.549200                0.00000
     0.550300                0.00000
     0.551400                0.00000
     0.552500                0.00000
     0.553600                0.00000
     0.554700                0.00000
     0.555800                0.00000
     0.556900                0.00000
     0.558000                0.00000
     0.559100                0.00000
     0.560200                0.00000
     0.561300                0.00000
     0.562400                0.00000
     0.563500                0.00000
     0.564600                0.00000
     0.565700                0.00000
     0.566800                0.00000
     0.567900                0.00000
     0.569000                0.00000
     0.570100                0.00000
     0.571200                0.00000
     0.572300                0.00000
     0.573400                0.00000
     0.574500                0.00000
     0.575600                0.00000
     0.576700                0.00000
     0.577800                0.00000
     0.578900                0.00000
     0.580000                0.00000
     0.581100                0.00000
     0.582200                0.00000
     0.583300                0.00000
     0.584400                0.00000
     0.585500                0.00000
     0.586600                0.00000
     0.587700                0.00000
     0.588800                0.00000
     0.589900                0.00000
     0.591000                0.00000
     0.592100                0.00000
     0.593200                0.00000
     0.594300                0.00000
     0.595400                0.00000
     0.596500                0.00000
     0.597600                0.00000
     0.598700                0.00000
     0.599800                0.00000
     0.600900                0.00000
     0.602000                0.00000
     0.603100                0.00000
     0.604200                0.00000
     0.605300                0.00000
     0.606400                0.00000
     0.607500                0.00000
     0.608600                0.00000
     0.609700                0.00000
     0.610800                0.00000
     0.611900                0.00000
     0.613000                0.00000
     0.614100                0.00000
     0.615200                0.00000
     0.616300                0.00000
     0.617400                0.00000
     0.618500                0.00000
     0.619600                0.00000
     0.620700                0.00000
     0.621800                0.00000
     0.622900                0.00000
     0.624000                0.00000
     0.625101                0.00000
     0.626309                0.00000
     0.627586                0.00000
     0.628770                0.00000
     0.629703                0.00000
     0.630000                0.00000
     0.630000                0.00000
     0.630000                0.00000
     0.630000                0.00000
